PE FL                   SPECTRUM    ASCII       PEDS        1.60        
  -1
DMB021.SP
23/03/01
17:04:59.00
23/03/01
17:06:00.00


700.500000
1









LS50-B
415.00
2.50
2.50
SCAN
1
20
100
100
0
400
0
1
0
1
7
ON
700 415 
1 0 0
#HDR
-1
-1
#GR
NM
INT 
0.00002384185791015625
0.0
380.000000
0.500000
642
8
497.452000
-0.111000
#DATA
380.000000	0.325000   
380.500000	0.295000   
381.000000	0.365000   
381.500000	0.224000   
382.000000	0.253000   
382.500000	0.343000   
383.000000	0.163000   
383.500000	0.112000   
384.000000	0.181000   
384.500000	0.149000   
385.000000	0.390000   
385.500000	0.420000   
386.000000	0.292000   
386.500000	0.130000   
387.000000	0.366000   
387.500000	0.487000   
388.000000	0.000000   
388.500000	0.282000   
389.000000	0.512000   
389.500000	0.199000   
390.000000	0.659000   
390.500000	0.332000   
391.000000	0.334000   
391.500000	0.156000   
392.000000	0.191000   
392.500000	0.111000   
393.000000	0.300000   
393.500000	0.056000   
394.000000	0.000000   
394.500000	-0.027000  
395.000000	0.030000   
395.500000	0.365000   
396.000000	0.095000   
396.500000	0.244000   
397.000000	0.221000   
397.500000	-0.111000  
398.000000	-0.027000  
398.500000	0.122000   
399.000000	0.231000   
399.500000	0.110000   
400.000000	0.144000   
400.500000	0.284000   
401.000000	0.492000   
401.500000	0.284000   
402.000000	0.068000   
402.500000	0.140000   
403.000000	0.275000   
403.500000	0.374000   
404.000000	0.358000   
404.500000	0.274000   
405.000000	0.334000   
405.500000	0.174000   
406.000000	0.370000   
406.500000	0.312000   
407.000000	0.407000   
407.500000	0.683000   
408.000000	0.527000   
408.500000	1.310000   
409.000000	1.621000   
409.500000	2.977000   
410.000000	5.702000   
410.500000	10.910000  
411.000000	20.888000  
411.500000	30.242000  
412.000000	41.720000  
412.500000	56.638000  
413.000000	72.214000  
413.500000	85.471999  
414.000000	89.206999  
414.500000	83.887000  
415.000000	68.642000  
415.500000	56.119000  
416.000000	40.551000  
416.500000	26.121000  
417.000000	16.039000  
417.500000	9.587000   
418.000000	4.923000   
418.500000	2.415000   
419.000000	1.212000   
419.500000	0.954000   
420.000000	0.674000   
420.500000	0.412000   
421.000000	0.475000   
421.500000	0.377000   
422.000000	0.583000   
422.500000	0.491000   
423.000000	0.230000   
423.500000	0.672000   
424.000000	0.517000   
424.500000	0.642000   
425.000000	0.430000   
425.500000	0.427000   
426.000000	0.799000   
426.500000	0.607000   
427.000000	0.503000   
427.500000	0.374000   
428.000000	0.555000   
428.500000	0.712000   
429.000000	0.487000   
429.500000	0.712000   
430.000000	0.512000   
430.500000	0.573000   
431.000000	0.331000   
431.500000	0.461000   
432.000000	0.438000   
432.500000	0.556000   
433.000000	0.937000   
433.500000	0.852000   
434.000000	0.740000   
434.500000	0.910000   
435.000000	0.600000   
435.500000	0.414000   
436.000000	1.019000   
436.500000	1.024000   
437.000000	0.797000   
437.500000	0.827000   
438.000000	0.826000   
438.500000	1.200000   
439.000000	0.911000   
439.500000	0.930000   
440.000000	0.824000   
440.500000	1.159000   
441.000000	1.356000   
441.500000	1.081000   
442.000000	0.734000   
442.500000	0.748000   
443.000000	1.131000   
443.500000	1.278000   
444.000000	1.397000   
444.500000	1.175000   
445.000000	0.900000   
445.500000	1.295000   
446.000000	1.114000   
446.500000	1.529000   
447.000000	1.153000   
447.500000	1.638000   
448.000000	1.703000   
448.500000	1.517000   
449.000000	1.877000   
449.500000	1.533000   
450.000000	1.284000   
450.500000	1.829000   
451.000000	1.849000   
451.500000	1.638000   
452.000000	1.881000   
452.500000	1.909000   
453.000000	2.131000   
453.500000	1.610000   
454.000000	2.283000   
454.500000	2.124000   
455.000000	1.670000   
455.500000	1.921000   
456.000000	1.756000   
456.500000	1.779000   
457.000000	1.655000   
457.500000	2.199000   
458.000000	2.164000   
458.500000	1.920000   
459.000000	1.872000   
459.500000	1.871000   
460.000000	2.338000   
460.500000	2.460000   
461.000000	2.837000   
461.500000	1.966000   
462.000000	1.709000   
462.500000	1.940000   
463.000000	1.993000   
463.500000	2.810000   
464.000000	1.981000   
464.500000	2.005000   
465.000000	2.452000   
465.500000	2.569000   
466.000000	2.193000   
466.500000	2.690000   
467.000000	2.675000   
467.500000	2.605000   
468.000000	2.426000   
468.500000	2.602000   
469.000000	2.112000   
469.500000	2.461000   
470.000000	2.056000   
470.500000	2.933000   
471.000000	2.310000   
471.500000	3.267000   
472.000000	2.435000   
472.500000	2.851000   
473.000000	2.397000   
473.500000	3.403000   
474.000000	2.800000   
474.500000	3.079000   
475.000000	2.821000   
475.500000	2.678000   
476.000000	2.628000   
476.500000	2.928000   
477.000000	3.011000   
477.500000	3.881000   
478.000000	3.145000   
478.500000	2.998000   
479.000000	3.092000   
479.500000	3.566000   
480.000000	4.109000   
480.500000	4.360000   
481.000000	4.188000   
481.500000	4.678000   
482.000000	5.306000   
482.500000	5.254000   
483.000000	5.885000   
483.500000	6.261000   
484.000000	6.542000   
484.500000	6.984000   
485.000000	7.783000   
485.500000	7.112000   
486.000000	8.526000   
486.500000	9.766999   
487.000000	10.931000  
487.500000	10.984000  
488.000000	11.804000  
488.500000	11.998000  
489.000000	13.788000  
489.500000	17.760000  
490.000000	16.061000  
490.500000	17.463000  
491.000000	19.690000  
491.500000	21.508000  
492.000000	22.940000  
492.500000	26.342000  
493.000000	27.733000  
493.500000	29.457000  
494.000000	32.016000  
494.500000	35.717000  
495.000000	38.630000  
495.500000	43.254000  
496.000000	49.405000  
496.500000	50.602000  
497.000000	53.558000  
497.500000	61.627000  
498.000000	69.246000  
498.500000	74.792000  
499.000000	83.992999  
499.500000	89.456000  
500.000000	96.311000  
500.500000	103.267000 
501.000000	110.168000 
501.500000	120.532000 
502.000000	132.106000 
502.500000	141.082000 
503.000000	150.647000 
503.500000	157.908000 
504.000000	175.124000 
504.500000	186.129000 
505.000000	201.533000 
505.500000	209.360000 
506.000000	230.784000 
506.500000	242.104000 
507.000000	257.674000 
507.500000	275.232000 
508.000000	283.554000 
508.500000	292.494000 
509.000000	313.766000 
509.500000	332.745000 
510.000000	344.154000 
510.500000	357.268000 
511.000000	367.029000 
511.500000	384.880000 
512.000000	387.458000 
512.500000	403.374000 
513.000000	423.492000 
513.500000	427.329000 
514.000000	436.668000 
514.500000	447.532000 
515.000000	443.066000 
515.500000	459.054000 
516.000000	471.723000 
516.500000	476.398000 
517.000000	478.938000 
517.500000	470.934000 
518.000000	487.980000 
518.500000	481.669000 
519.000000	497.452000 
519.500000	483.375000 
520.000000	481.198000 
520.500000	491.589000 
521.000000	487.105000 
521.500000	470.528000 
522.000000	484.702000 
522.500000	467.760000 
523.000000	462.398000 
523.500000	452.994000 
524.000000	458.321000 
524.500000	461.466000 
525.000000	452.929000 
525.500000	456.603000 
526.000000	428.155000 
526.500000	422.287000 
527.000000	417.128000 
527.500000	412.984000 
528.000000	411.228000 
528.500000	405.651000 
529.000000	389.875000 
529.500000	395.890000 
530.000000	381.774000 
530.500000	371.929000 
531.000000	364.808000 
531.500000	364.693000 
532.000000	361.033000 
532.500000	359.505000 
533.000000	349.122000 
533.500000	345.699000 
534.000000	336.327000 
534.500000	333.314000 
535.000000	324.460000 
535.500000	316.823000 
536.000000	317.678000 
536.500000	302.385000 
537.000000	296.858000 
537.500000	297.620000 
538.000000	296.298000 
538.500000	286.592000 
539.000000	282.210000 
539.500000	284.374000 
540.000000	276.640000 
540.500000	275.372000 
541.000000	273.244000 
541.500000	271.467000 
542.000000	262.418000 
542.500000	256.599000 
543.000000	250.985000 
543.500000	241.331000 
544.000000	245.029000 
544.500000	238.964000 
545.000000	234.640000 
545.500000	235.264000 
546.000000	232.257000 
546.500000	227.993000 
547.000000	224.348000 
547.500000	225.341000 
548.000000	212.093000 
548.500000	209.764000 
549.000000	208.045000 
549.500000	206.201000 
550.000000	203.262000 
550.500000	195.119000 
551.000000	194.385000 
551.500000	190.477000 
552.000000	190.855000 
552.500000	191.271000 
553.000000	177.609000 
553.500000	179.313000 
554.000000	182.381000 
554.500000	171.085000 
555.000000	174.285000 
555.500000	165.393000 
556.000000	167.351000 
556.500000	161.161000 
557.000000	157.986000 
557.500000	157.761000 
558.000000	153.754000 
558.500000	153.222000 
559.000000	148.098000 
559.500000	151.665000 
560.000000	144.558000 
560.500000	142.154000 
561.000000	142.223000 
561.500000	137.300000 
562.000000	129.304000 
562.500000	128.111000 
563.000000	125.750000 
563.500000	122.735000 
564.000000	121.166000 
564.500000	115.486000 
565.000000	116.333000 
565.500000	117.379000 
566.000000	111.825000 
566.500000	109.721000 
567.000000	105.759000 
567.500000	111.320000 
568.000000	103.441000 
568.500000	103.115000 
569.000000	101.165000 
569.500000	93.029000  
570.000000	95.781000  
570.500000	93.355999  
571.000000	89.598000  
571.500000	92.123000  
572.000000	84.360000  
572.500000	85.587000  
573.000000	86.010000  
573.500000	78.831000  
574.000000	79.876000  
574.500000	77.614000  
575.000000	74.605999  
575.500000	73.793000  
576.000000	72.630000  
576.500000	73.536000  
577.000000	69.308000  
577.500000	69.670000  
578.000000	63.573000  
578.500000	62.087000  
579.000000	60.511000  
579.500000	59.998000  
580.000000	61.228000  
580.500000	58.801000  
581.000000	56.050000  
581.500000	57.161000  
582.000000	55.908000  
582.500000	52.949000  
583.000000	51.589000  
583.500000	50.997000  
584.000000	50.574000  
584.500000	52.298000  
585.000000	49.642000  
585.500000	48.926000  
586.000000	47.037000  
586.500000	44.935000  
587.000000	46.936000  
587.500000	43.772000  
588.000000	41.857000  
588.500000	41.968000  
589.000000	42.563000  
589.500000	40.616000  
590.000000	39.121000  
590.500000	39.256000  
591.000000	37.364000  
591.500000	38.017000  
592.000000	34.473000  
592.500000	34.208000  
593.000000	34.082000  
593.500000	31.969000  
594.000000	35.773000  
594.500000	34.742000  
595.000000	32.557000  
595.500000	32.611000  
596.000000	29.450000  
596.500000	31.049000  
597.000000	30.837000  
597.500000	30.077000  
598.000000	29.120000  
598.500000	27.503000  
599.000000	28.870000  
599.500000	26.606000  
600.000000	28.355000  
600.500000	26.869000  
601.000000	28.574000  
601.500000	26.602000  
602.000000	26.868000  
602.500000	26.900000  
603.000000	26.330000  
603.500000	23.523000  
604.000000	24.246000  
604.500000	22.781000  
605.000000	22.542000  
605.500000	21.447000  
606.000000	19.857000  
606.500000	22.146000  
607.000000	22.075000  
607.500000	20.830000  
608.000000	18.894000  
608.500000	21.036000  
609.000000	20.122000  
609.500000	19.579000  
610.000000	18.840000  
610.500000	17.849000  
611.000000	17.560000  
611.500000	18.273000  
612.000000	17.267000  
612.500000	18.948000  
613.000000	17.339000  
613.500000	17.162000  
614.000000	16.389000  
614.500000	15.678000  
615.000000	16.560000  
615.500000	16.229000  
616.000000	15.560000  
616.500000	16.240000  
617.000000	16.334000  
617.500000	14.453000  
618.000000	14.162000  
618.500000	14.199000  
619.000000	11.612000  
619.500000	15.351000  
620.000000	12.379000  
620.500000	12.993000  
621.000000	12.323000  
621.500000	12.974000  
622.000000	10.993000  
622.500000	11.399000  
623.000000	10.614000  
623.500000	11.152000  
624.000000	11.085000  
624.500000	9.701000   
625.000000	9.776000   
625.500000	9.141999   
626.000000	8.693000   
626.500000	9.457000   
627.000000	9.035000   
627.500000	9.849000   
628.000000	7.762000   
628.500000	8.301000   
629.000000	8.994999   
629.500000	8.943000   
630.000000	8.794000   
630.500000	7.273000   
631.000000	7.473000   
631.500000	7.174000   
632.000000	7.491000   
632.500000	8.250000   
633.000000	8.080000   
633.500000	7.583000   
634.000000	7.312000   
634.500000	7.087000   
635.000000	6.223000   
635.500000	6.351000   
636.000000	6.626000   
636.500000	6.168000   
637.000000	6.498000   
637.500000	5.977000   
638.000000	7.393000   
638.500000	4.952000   
639.000000	5.768000   
639.500000	4.860000   
640.000000	5.185000   
640.500000	5.883000   
641.000000	5.224000   
641.500000	4.898000   
642.000000	4.624000   
642.500000	4.926000   
643.000000	4.503000   
643.500000	4.547000   
644.000000	5.123000   
644.500000	4.281000   
645.000000	4.050000   
645.500000	4.231000   
646.000000	3.951000   
646.500000	4.840000   
647.000000	4.599000   
647.500000	4.081000   
648.000000	4.319000   
648.500000	4.269000   
649.000000	3.955000   
649.500000	3.270000   
650.000000	3.165000   
650.500000	3.652000   
651.000000	3.583000   
651.500000	3.729000   
652.000000	3.360000   
652.500000	3.114000   
653.000000	3.639000   
653.500000	2.795000   
654.000000	3.162000   
654.500000	2.884000   
655.000000	2.582000   
655.500000	2.239000   
656.000000	3.114000   
656.500000	2.447000   
657.000000	2.520000   
657.500000	2.648000   
658.000000	2.963000   
658.500000	2.930000   
659.000000	2.734000   
659.500000	2.350000   
660.000000	2.991000   
660.500000	2.228000   
661.000000	2.225000   
661.500000	2.581000   
662.000000	2.884000   
662.500000	2.495000   
663.000000	1.520000   
663.500000	3.045000   
664.000000	2.577000   
664.500000	1.820000   
665.000000	1.839000   
665.500000	2.132000   
666.000000	2.690000   
666.500000	2.091000   
667.000000	2.149000   
667.500000	2.308000   
668.000000	1.767000   
668.500000	1.735000   
669.000000	2.112000   
669.500000	2.313000   
670.000000	2.404000   
670.500000	1.702000   
671.000000	1.902000   
671.500000	1.644000   
672.000000	1.531000   
672.500000	1.720000   
673.000000	1.452000   
673.500000	1.613000   
674.000000	1.673000   
674.500000	1.422000   
675.000000	1.732000   
675.500000	1.687000   
676.000000	1.609000   
676.500000	1.584000   
677.000000	1.866000   
677.500000	1.835000   
678.000000	1.524000   
678.500000	1.609000   
679.000000	1.502000   
679.500000	1.436000   
680.000000	1.452000   
680.500000	1.477000   
681.000000	1.500000   
681.500000	1.073000   
682.000000	1.596000   
682.500000	1.464000   
683.000000	1.414000   
683.500000	1.224000   
684.000000	1.773000   
684.500000	1.146000   
685.000000	0.962000   
685.500000	0.775000   
686.000000	1.468000   
686.500000	0.799000   
687.000000	1.110000   
687.500000	0.836000   
688.000000	1.253000   
688.500000	1.289000   
689.000000	1.048000   
689.500000	0.726000   
690.000000	1.022000   
690.500000	0.826000   
691.000000	0.762000   
691.500000	1.322000   
692.000000	1.063000   
692.500000	1.298000   
693.000000	1.103000   
693.500000	1.132000   
694.000000	0.619000   
694.500000	0.881000   
695.000000	1.102000   
695.500000	0.733000   
696.000000	0.821000   
696.500000	1.079000   
697.000000	1.091000   
697.500000	1.178000   
698.000000	0.945000   
698.500000	0.735000   
699.000000	1.066000   
699.500000	0.444000   
700.000000	0.590000   
700.500000	0.735000   

