PE FL                   SPECTRUM    ASCII       PEDS        1.60        
  -1
DMB035.SP
23/03/01
17:46:49.00
23/03/01
17:47:50.00


700.500000
1









LS50-B
415.00
2.50
2.50
SCAN
1
20
100
100
0
400
0
1
0
1
7
ON
700 415 
1 0 0
#HDR
-1
-1
#GR
NM
INT 
0.00002384185791015625
0.0
380.000000
0.500000
642
8
173.552000
-0.565999
#DATA
380.000000	0.377000   
380.500000	0.106000   
381.000000	0.207000   
381.500000	-0.011000  
382.000000	0.168000   
382.500000	0.185000   
383.000000	0.331000   
383.500000	0.189000   
384.000000	0.253000   
384.500000	0.038000   
385.000000	0.002000   
385.500000	0.137000   
386.000000	0.023000   
386.500000	0.101000   
387.000000	0.120000   
387.500000	0.340000   
388.000000	0.045000   
388.500000	0.061000   
389.000000	0.087999   
389.500000	0.000000   
390.000000	0.326000   
390.500000	0.118000   
391.000000	0.120000   
391.500000	0.324000   
392.000000	0.028000   
392.500000	0.150000   
393.000000	0.364000   
393.500000	-0.011000  
394.000000	0.177000   
394.500000	0.066000   
395.000000	0.354000   
395.500000	0.112000   
396.000000	0.019000   
396.500000	0.121000   
397.000000	0.084000   
397.500000	0.321000   
398.000000	0.345000   
398.500000	0.123000   
399.000000	0.096000   
399.500000	0.135000   
400.000000	0.180000   
400.500000	0.220000   
401.000000	0.165000   
401.500000	0.279000   
402.000000	0.131000   
402.500000	0.200000   
403.000000	0.379000   
403.500000	0.473000   
404.000000	0.394000   
404.500000	0.151000   
405.000000	-0.033000  
405.500000	0.274000   
406.000000	0.133000   
406.500000	0.383000   
407.000000	0.639000   
407.500000	1.009000   
408.000000	1.087000   
408.500000	2.305000   
409.000000	4.465000   
409.500000	9.125000   
410.000000	15.880000  
410.500000	28.274000  
411.000000	49.485000  
411.500000	71.959999  
412.000000	101.248000 
412.500000	131.202000 
413.000000	155.765000 
413.500000	173.179000 
414.000000	173.552000 
414.500000	158.280000 
415.000000	131.743000 
415.500000	104.558000 
416.000000	73.177000  
416.500000	46.305000  
417.000000	29.324000  
417.500000	15.004000  
418.000000	9.067000   
418.500000	4.738000   
419.000000	2.246000   
419.500000	1.398000   
420.000000	0.330000   
420.500000	0.461000   
421.000000	0.563999   
421.500000	0.326000   
422.000000	0.239000   
422.500000	0.487000   
423.000000	0.215000   
423.500000	0.056000   
424.000000	0.076000   
424.500000	-0.010000  
425.000000	0.129000   
425.500000	0.191000   
426.000000	0.318000   
426.500000	0.250000   
427.000000	0.388000   
427.500000	0.624000   
428.000000	0.236000   
428.500000	0.133000   
429.000000	0.042000   
429.500000	0.056000   
430.000000	0.020000   
430.500000	0.123000   
431.000000	0.033000   
431.500000	-0.090000  
432.000000	-0.024000  
432.500000	0.152000   
433.000000	0.067000   
433.500000	0.247000   
434.000000	0.036000   
434.500000	0.089000   
435.000000	0.226000   
435.500000	0.101000   
436.000000	0.317000   
436.500000	0.044000   
437.000000	0.054000   
437.500000	0.225000   
438.000000	0.503000   
438.500000	0.123000   
439.000000	0.383000   
439.500000	0.318000   
440.000000	0.519000   
440.500000	0.347000   
441.000000	0.580000   
441.500000	0.284000   
442.000000	-0.064000  
442.500000	0.685000   
443.000000	0.682000   
443.500000	0.278000   
444.000000	-0.260000  
444.500000	0.089000   
445.000000	0.235000   
445.500000	0.102000   
446.000000	0.092000   
446.500000	0.000000   
447.000000	0.557000   
447.500000	0.055000   
448.000000	0.734000   
448.500000	-0.365000  
449.000000	0.259000   
449.500000	0.595000   
450.000000	-0.297000  
450.500000	-0.284000  
451.000000	0.382000   
451.500000	1.736000   
452.000000	1.007000   
452.500000	-0.006000  
453.000000	0.322000   
453.500000	-0.565999  
454.000000	1.371000   
454.500000	0.292000   
455.000000	0.279000   
455.500000	0.444000   
456.000000	0.293000   
456.500000	0.459000   
457.000000	0.476000   
457.500000	0.261000   
458.000000	0.563999   
458.500000	0.794000   
459.000000	1.255000   
459.500000	-0.498000  
460.000000	0.719000   
460.500000	0.793000   
461.000000	1.437000   
461.500000	1.204000   
462.000000	0.681000   
462.500000	0.404000   
463.000000	0.331000   
463.500000	0.311000   
464.000000	0.608000   
464.500000	0.991000   
465.000000	0.555000   
465.500000	0.613000   
466.000000	0.548000   
466.500000	0.839000   
467.000000	0.677000   
467.500000	0.473000   
468.000000	1.137000   
468.500000	0.596000   
469.000000	0.645000   
469.500000	0.045000   
470.000000	0.246000   
470.500000	0.970000   
471.000000	0.408000   
471.500000	0.801000   
472.000000	0.597000   
472.500000	0.323000   
473.000000	0.285000   
473.500000	0.679000   
474.000000	0.825000   
474.500000	0.918000   
475.000000	0.785000   
475.500000	0.225000   
476.000000	0.390000   
476.500000	0.112000   
477.000000	0.595000   
477.500000	0.591000   
478.000000	0.733000   
478.500000	1.254000   
479.000000	1.530000   
479.500000	0.992000   
480.000000	1.017000   
480.500000	1.029000   
481.000000	0.981000   
481.500000	1.434000   
482.000000	1.451000   
482.500000	1.553000   
483.000000	1.435000   
483.500000	2.083000   
484.000000	1.937000   
484.500000	1.237000   
485.000000	1.642000   
485.500000	3.013000   
486.000000	3.353000   
486.500000	2.441000   
487.000000	2.104000   
487.500000	3.542000   
488.000000	3.212000   
488.500000	4.145000   
489.000000	4.187000   
489.500000	4.293000   
490.000000	4.194000   
490.500000	5.117000   
491.000000	5.563000   
491.500000	6.371000   
492.000000	6.748000   
492.500000	7.256000   
493.000000	7.427000   
493.500000	8.448000   
494.000000	8.909000   
494.500000	10.208000  
495.000000	11.854000  
495.500000	10.675000  
496.000000	12.624000  
496.500000	13.785000  
497.000000	14.175000  
497.500000	15.610000  
498.000000	17.750000  
498.500000	20.832000  
499.000000	23.581000  
499.500000	23.992000  
500.000000	27.270000  
500.500000	29.446000  
501.000000	30.230000  
501.500000	34.543000  
502.000000	37.286000  
502.500000	39.656000  
503.000000	42.014000  
503.500000	45.067000  
504.000000	50.217000  
504.500000	53.079000  
505.000000	56.825000  
505.500000	62.263000  
506.000000	66.050000  
506.500000	68.245000  
507.000000	72.319999  
507.500000	73.593999  
508.000000	82.140000  
508.500000	84.426000  
509.000000	90.539000  
509.500000	95.851000  
510.000000	97.436000  
510.500000	96.321000  
511.000000	102.520000 
511.500000	107.947000 
512.000000	110.734000 
512.500000	115.411000 
513.000000	120.662000 
513.500000	124.156000 
514.000000	130.043000 
514.500000	126.103000 
515.000000	127.375000 
515.500000	126.357000 
516.000000	136.581000 
516.500000	139.745000 
517.000000	139.218000 
517.500000	133.926000 
518.000000	139.638000 
518.500000	136.279000 
519.000000	133.127000 
519.500000	135.770000 
520.000000	141.154000 
520.500000	137.354000 
521.000000	137.650000 
521.500000	133.270000 
522.000000	141.330000 
522.500000	135.703000 
523.000000	137.462000 
523.500000	135.308000 
524.000000	132.514000 
524.500000	131.076000 
525.000000	130.380000 
525.500000	136.699000 
526.000000	126.532000 
526.500000	127.324000 
527.000000	120.108000 
527.500000	124.560000 
528.000000	118.614000 
528.500000	118.054000 
529.000000	114.520000 
529.500000	116.696000 
530.000000	112.095000 
530.500000	114.761000 
531.000000	113.139000 
531.500000	110.381000 
532.000000	110.930000 
532.500000	106.018000 
533.000000	103.501000 
533.500000	102.524000 
534.000000	101.070000 
534.500000	101.655000 
535.000000	104.092000 
535.500000	96.937000  
536.000000	92.282000  
536.500000	93.029000  
537.000000	93.882000  
537.500000	88.983000  
538.000000	88.422000  
538.500000	86.535000  
539.000000	87.718000  
539.500000	85.092000  
540.000000	80.611000  
540.500000	81.715000  
541.000000	83.380000  
541.500000	78.032000  
542.000000	83.836000  
542.500000	78.480999  
543.000000	75.621000  
543.500000	73.550000  
544.000000	77.324000  
544.500000	76.535000  
545.000000	76.408000  
545.500000	70.223000  
546.000000	71.881000  
546.500000	70.444999  
547.000000	72.162000  
547.500000	72.259000  
548.000000	68.337999  
548.500000	66.825999  
549.000000	65.459999  
549.500000	63.377000  
550.000000	64.361000  
550.500000	64.464000  
551.000000	64.131000  
551.500000	60.392000  
552.000000	60.238000  
552.500000	58.674000  
553.000000	58.311000  
553.500000	58.595000  
554.000000	59.655000  
554.500000	57.847000  
555.000000	53.654000  
555.500000	54.495000  
556.000000	51.766000  
556.500000	53.229000  
557.000000	51.743000  
557.500000	53.406000  
558.000000	50.279000  
558.500000	50.717000  
559.000000	50.453000  
559.500000	49.924000  
560.000000	46.586000  
560.500000	46.656000  
561.000000	46.800000  
561.500000	49.025000  
562.000000	44.840000  
562.500000	42.863000  
563.000000	42.876000  
563.500000	44.918000  
564.000000	39.791000  
564.500000	40.138000  
565.000000	40.296000  
565.500000	38.084000  
566.000000	38.645000  
566.500000	38.550000  
567.000000	37.076000  
567.500000	37.421000  
568.000000	36.478000  
568.500000	33.407000  
569.000000	34.289000  
569.500000	33.862000  
570.000000	30.555000  
570.500000	31.414000  
571.000000	31.784000  
571.500000	33.716000  
572.000000	31.190000  
572.500000	30.166000  
573.000000	29.831000  
573.500000	27.485000  
574.000000	27.016000  
574.500000	27.283000  
575.000000	25.629000  
575.500000	24.720000  
576.000000	28.384000  
576.500000	27.642000  
577.000000	24.695000  
577.500000	22.985000  
578.000000	25.342000  
578.500000	24.177000  
579.000000	21.634000  
579.500000	19.901000  
580.000000	22.016000  
580.500000	20.983000  
581.000000	21.574000  
581.500000	18.942000  
582.000000	19.657000  
582.500000	19.485000  
583.000000	17.614000  
583.500000	17.676000  
584.000000	18.200000  
584.500000	17.315000  
585.000000	15.729000  
585.500000	18.438000  
586.000000	17.584000  
586.500000	17.432000  
587.000000	15.760000  
587.500000	16.365000  
588.000000	15.957000  
588.500000	14.983000  
589.000000	16.405000  
589.500000	14.497000  
590.000000	14.990000  
590.500000	12.999000  
591.000000	13.686000  
591.500000	14.425000  
592.000000	13.329000  
592.500000	12.783000  
593.000000	11.650000  
593.500000	13.262000  
594.000000	13.253000  
594.500000	12.041000  
595.000000	12.080000  
595.500000	12.907000  
596.000000	13.443000  
596.500000	12.695000  
597.000000	12.098000  
597.500000	10.772000  
598.000000	11.755000  
598.500000	11.625000  
599.000000	10.496000  
599.500000	9.877000   
600.000000	11.858000  
600.500000	9.550000   
601.000000	10.460000  
601.500000	9.423999   
602.000000	9.473000   
602.500000	9.015000   
603.000000	9.957000   
603.500000	10.448000  
604.000000	9.723000   
604.500000	9.835000   
605.000000	10.564000  
605.500000	10.492000  
606.000000	8.269000   
606.500000	7.130000   
607.000000	7.764000   
607.500000	7.548000   
608.000000	7.732000   
608.500000	8.384000   
609.000000	7.430000   
609.500000	8.315000   
610.000000	7.536000   
610.500000	7.147000   
611.000000	7.582000   
611.500000	6.682000   
612.000000	7.271000   
612.500000	7.121000   
613.000000	6.997000   
613.500000	7.894000   
614.000000	7.323000   
614.500000	5.968000   
615.000000	6.553000   
615.500000	5.414000   
616.000000	6.310000   
616.500000	6.016000   
617.000000	6.443000   
617.500000	6.400000   
618.000000	5.795000   
618.500000	6.013000   
619.000000	6.272000   
619.500000	5.342000   
620.000000	3.893000   
620.500000	3.984000   
621.000000	4.863000   
621.500000	4.383000   
622.000000	5.056000   
622.500000	4.588000   
623.000000	4.682000   
623.500000	5.138000   
624.000000	5.161000   
624.500000	4.379000   
625.000000	5.079000   
625.500000	4.021000   
626.000000	4.139000   
626.500000	3.543000   
627.000000	3.739000   
627.500000	3.719000   
628.000000	3.862000   
628.500000	4.120000   
629.000000	3.210000   
629.500000	3.412000   
630.000000	3.044000   
630.500000	3.180000   
631.000000	2.794000   
631.500000	3.666000   
632.000000	3.271000   
632.500000	3.611000   
633.000000	2.626000   
633.500000	2.017000   
634.000000	2.955000   
634.500000	3.022000   
635.000000	2.496000   
635.500000	2.323000   
636.000000	2.571000   
636.500000	2.377000   
637.000000	2.411000   
637.500000	3.878000   
638.000000	2.673000   
638.500000	2.702000   
639.000000	2.822000   
639.500000	2.781000   
640.000000	2.142000   
640.500000	1.998000   
641.000000	2.001000   
641.500000	2.241000   
642.000000	1.889000   
642.500000	2.106000   
643.000000	2.499000   
643.500000	1.562000   
644.000000	1.548000   
644.500000	1.783000   
645.000000	2.019000   
645.500000	1.925000   
646.000000	1.047000   
646.500000	1.340000   
647.000000	1.999000   
647.500000	1.403000   
648.000000	1.776000   
648.500000	1.972000   
649.000000	1.437000   
649.500000	1.676000   
650.000000	1.441000   
650.500000	1.427000   
651.000000	1.682000   
651.500000	1.259000   
652.000000	1.544000   
652.500000	1.209000   
653.000000	0.852000   
653.500000	1.263000   
654.000000	1.127000   
654.500000	1.526000   
655.000000	0.665000   
655.500000	1.268000   
656.000000	1.165000   
656.500000	0.946000   
657.000000	1.107000   
657.500000	1.474000   
658.000000	1.079000   
658.500000	1.311000   
659.000000	1.267000   
659.500000	0.947000   
660.000000	1.075000   
660.500000	1.077000   
661.000000	1.447000   
661.500000	1.093000   
662.000000	1.228000   
662.500000	1.317000   
663.000000	1.192000   
663.500000	0.718000   
664.000000	1.173000   
664.500000	0.902000   
665.000000	1.075000   
665.500000	1.206000   
666.000000	0.797000   
666.500000	0.741000   
667.000000	0.992000   
667.500000	0.996000   
668.000000	1.162000   
668.500000	0.963000   
669.000000	1.580000   
669.500000	1.351000   
670.000000	1.116000   
670.500000	0.863000   
671.000000	0.947000   
671.500000	0.799000   
672.000000	0.708000   
672.500000	0.630000   
673.000000	0.902000   
673.500000	0.542000   
674.000000	0.868000   
674.500000	1.086000   
675.000000	0.819000   
675.500000	0.550000   
676.000000	1.089000   
676.500000	0.794000   
677.000000	0.790000   
677.500000	0.543000   
678.000000	0.864000   
678.500000	0.790000   
679.000000	0.856000   
679.500000	0.826000   
680.000000	0.708000   
680.500000	0.792000   
681.000000	0.774000   
681.500000	0.905000   
682.000000	0.713000   
682.500000	0.542000   
683.000000	0.955000   
683.500000	0.831000   
684.000000	0.602000   
684.500000	0.207000   
685.000000	0.502000   
685.500000	0.815999   
686.000000	0.591000   
686.500000	0.711000   
687.000000	0.493000   
687.500000	0.747000   
688.000000	0.481000   
688.500000	0.407000   
689.000000	0.669000   
689.500000	0.679000   
690.000000	0.640000   
690.500000	0.691999   
691.000000	0.237000   
691.500000	0.640000   
692.000000	0.250000   
692.500000	0.161000   
693.000000	1.131000   
693.500000	0.385000   
694.000000	0.484000   
694.500000	0.461000   
695.000000	0.558000   
695.500000	0.322000   
696.000000	0.300000   
696.500000	0.338000   
697.000000	0.049000   
697.500000	0.423000   
698.000000	0.500000   
698.500000	0.320000   
699.000000	0.467000   
699.500000	0.201000   
700.000000	0.249000   
700.500000	0.296000   

