PE FL                   SPECTRUM    ASCII       PEDS        1.60        
  -1
DMB015.SP
23/03/01
16:43:12.00
23/03/01
16:44:13.00


700.500000
1









LS50-B
415.00
2.50
2.50
SCAN
1
20
100
100
0
400
0
1
0
1
7
ON
700 415 
1 0 0
#HDR
-1
-1
#GR
NM
INT 
0.00002384185791015625
0.0
380.000000
0.500000
642
8
714.178000
-0.091000
#DATA
380.000000	0.112000   
380.500000	0.277000   
381.000000	0.320000   
381.500000	0.179000   
382.000000	0.362000   
382.500000	0.234000   
383.000000	0.510000   
383.500000	0.176000   
384.000000	0.208000   
384.500000	0.272000   
385.000000	0.200000   
385.500000	0.370000   
386.000000	0.250000   
386.500000	0.326000   
387.000000	0.243000   
387.500000	0.556000   
388.000000	0.297000   
388.500000	0.425000   
389.000000	0.496000   
389.500000	0.244000   
390.000000	0.275000   
390.500000	0.190000   
391.000000	0.249000   
391.500000	0.416000   
392.000000	0.200000   
392.500000	0.237000   
393.000000	0.475000   
393.500000	0.408000   
394.000000	0.213000   
394.500000	0.479000   
395.000000	0.665000   
395.500000	0.365000   
396.000000	0.464000   
396.500000	0.285000   
397.000000	0.409000   
397.500000	0.462000   
398.000000	0.145000   
398.500000	-0.006000  
399.000000	-0.091000  
399.500000	0.555000   
400.000000	0.504000   
400.500000	0.279000   
401.000000	0.309000   
401.500000	0.110000   
402.000000	0.523000   
402.500000	0.493000   
403.000000	0.323000   
403.500000	0.322000   
404.000000	0.666000   
404.500000	0.233000   
405.000000	0.360000   
405.500000	0.185000   
406.000000	0.269000   
406.500000	0.483000   
407.000000	0.480000   
407.500000	0.442000   
408.000000	0.845000   
408.500000	1.141000   
409.000000	1.998000   
409.500000	4.244000   
410.000000	6.352000   
410.500000	12.718000  
411.000000	22.907000  
411.500000	34.817000  
412.000000	51.853000  
412.500000	72.018000  
413.000000	89.274000  
413.500000	100.737000 
414.000000	105.146000 
414.500000	99.992000  
415.000000	86.038000  
415.500000	69.794000  
416.000000	48.738000  
416.500000	32.993000  
417.000000	20.279000  
417.500000	10.068000  
418.000000	6.087000   
418.500000	3.003000   
419.000000	2.096000   
419.500000	0.599000   
420.000000	1.219000   
420.500000	0.931000   
421.000000	0.807000   
421.500000	0.644000   
422.000000	0.558000   
422.500000	0.621000   
423.000000	0.539000   
423.500000	0.771000   
424.000000	0.609000   
424.500000	0.709000   
425.000000	0.564999   
425.500000	1.130000   
426.000000	0.560000   
426.500000	0.481000   
427.000000	0.527000   
427.500000	0.555000   
428.000000	0.793000   
428.500000	0.897000   
429.000000	0.659000   
429.500000	0.625000   
430.000000	0.542000   
430.500000	1.005000   
431.000000	0.768000   
431.500000	0.762000   
432.000000	0.641000   
432.500000	0.973000   
433.000000	0.856000   
433.500000	1.242000   
434.000000	0.941999   
434.500000	0.961000   
435.000000	0.999000   
435.500000	1.089000   
436.000000	0.989000   
436.500000	1.203000   
437.000000	1.147000   
437.500000	1.024000   
438.000000	1.631000   
438.500000	1.349000   
439.000000	0.942999   
439.500000	0.691999   
440.000000	1.369000   
440.500000	1.613000   
441.000000	1.456000   
441.500000	1.303000   
442.000000	1.984000   
442.500000	1.740000   
443.000000	1.799000   
443.500000	1.554000   
444.000000	1.890000   
444.500000	1.970000   
445.000000	2.018000   
445.500000	1.914000   
446.000000	1.845000   
446.500000	1.889000   
447.000000	2.274000   
447.500000	2.341000   
448.000000	1.638000   
448.500000	1.977000   
449.000000	1.636000   
449.500000	1.977000   
450.000000	2.513000   
450.500000	2.362000   
451.000000	2.062000   
451.500000	2.437000   
452.000000	2.503000   
452.500000	2.339000   
453.000000	2.375000   
453.500000	2.137000   
454.000000	3.167000   
454.500000	3.218000   
455.000000	2.669000   
455.500000	2.578000   
456.000000	2.473000   
456.500000	3.105000   
457.000000	3.264000   
457.500000	2.225000   
458.000000	2.438000   
458.500000	2.834000   
459.000000	2.590000   
459.500000	2.952000   
460.000000	2.770000   
460.500000	3.565000   
461.000000	3.073000   
461.500000	2.897000   
462.000000	3.095000   
462.500000	3.298000   
463.000000	3.366000   
463.500000	3.105000   
464.000000	3.027000   
464.500000	3.177000   
465.000000	3.478000   
465.500000	2.696000   
466.000000	3.625000   
466.500000	2.839000   
467.000000	4.075000   
467.500000	3.398000   
468.000000	3.381000   
468.500000	3.300000   
469.000000	3.943000   
469.500000	3.200000   
470.000000	3.780000   
470.500000	4.146000   
471.000000	4.257000   
471.500000	3.677000   
472.000000	3.472000   
472.500000	3.374000   
473.000000	3.173000   
473.500000	4.615000   
474.000000	3.887000   
474.500000	4.221000   
475.000000	4.032000   
475.500000	4.245000   
476.000000	4.398000   
476.500000	4.644000   
477.000000	4.826000   
477.500000	5.972000   
478.000000	4.511000   
478.500000	5.776000   
479.000000	5.597000   
479.500000	4.639000   
480.000000	5.438000   
480.500000	5.646000   
481.000000	5.973000   
481.500000	7.353000   
482.000000	7.339000   
482.500000	7.811000   
483.000000	8.074999   
483.500000	9.276999   
484.000000	10.158000  
484.500000	9.574000   
485.000000	10.844000  
485.500000	12.380000  
486.000000	12.545000  
486.500000	13.448000  
487.000000	14.029000  
487.500000	18.113000  
488.000000	16.840000  
488.500000	18.403000  
489.000000	19.965000  
489.500000	22.057000  
490.000000	25.093000  
490.500000	27.415000  
491.000000	29.752000  
491.500000	29.925000  
492.000000	33.996000  
492.500000	38.626000  
493.000000	39.093000  
493.500000	40.575000  
494.000000	49.618000  
494.500000	54.681000  
495.000000	56.707000  
495.500000	61.888000  
496.000000	69.767000  
496.500000	77.630000  
497.000000	81.528000  
497.500000	87.777000  
498.000000	101.696000 
498.500000	111.814000 
499.000000	120.315000 
499.500000	125.732000 
500.000000	142.039000 
500.500000	154.758000 
501.000000	165.728000 
501.500000	184.638000 
502.000000	196.371000 
502.500000	208.702000 
503.000000	222.696000 
503.500000	246.327000 
504.000000	257.940000 
504.500000	279.440000 
505.000000	309.499000 
505.500000	317.634000 
506.000000	336.220000 
506.500000	365.222000 
507.000000	380.118000 
507.500000	389.579000 
508.000000	417.865000 
508.500000	438.071000 
509.000000	464.655000 
509.500000	488.573000 
510.000000	495.345000 
510.500000	519.780999 
511.000000	538.320000 
511.500000	553.532000 
512.000000	590.976000 
512.500000	612.400000 
513.000000	620.292000 
513.500000	608.383000 
514.000000	640.975000 
514.500000	652.155000 
515.000000	670.076000 
515.500000	666.164000 
516.000000	687.554999 
516.500000	696.917000 
517.000000	693.293000 
517.500000	714.178000 
518.000000	713.123000 
518.500000	709.136999 
519.000000	703.622000 
519.500000	708.862000 
520.000000	701.022000 
520.500000	708.869000 
521.000000	690.520000 
521.500000	711.302000 
522.000000	706.075000 
522.500000	683.636999 
523.000000	689.458000 
523.500000	667.777000 
524.000000	675.727000 
524.500000	673.564000 
525.000000	645.915000 
525.500000	662.670000 
526.000000	640.244000 
526.500000	631.754000 
527.000000	618.082000 
527.500000	602.141000 
528.000000	587.226000 
528.500000	578.082000 
529.000000	584.456000 
529.500000	562.987000 
530.000000	557.756999 
530.500000	545.766000 
531.000000	540.133000 
531.500000	533.091000 
532.000000	515.595000 
532.500000	508.148000 
533.000000	493.951000 
533.500000	497.932000 
534.000000	493.866000 
534.500000	479.805000 
535.000000	470.724000 
535.500000	465.993000 
536.000000	453.147000 
536.500000	451.016000 
537.000000	444.704000 
537.500000	437.147000 
538.000000	410.988000 
538.500000	410.957000 
539.000000	403.407000 
539.500000	395.629000 
540.000000	391.313000 
540.500000	385.932000 
541.000000	382.341000 
541.500000	380.127000 
542.000000	373.635000 
542.500000	366.262000 
543.000000	361.096000 
543.500000	351.841000 
544.000000	348.391000 
544.500000	337.792000 
545.000000	339.898000 
545.500000	336.117000 
546.000000	325.343000 
546.500000	330.988000 
547.000000	323.961000 
547.500000	312.916000 
548.000000	300.258000 
548.500000	301.240000 
549.000000	304.570000 
549.500000	295.647000 
550.000000	294.761000 
550.500000	286.441000 
551.000000	284.727000 
551.500000	282.654000 
552.000000	271.589000 
552.500000	265.584000 
553.000000	263.949000 
553.500000	256.633000 
554.000000	268.141000 
554.500000	256.376000 
555.000000	251.373000 
555.500000	245.180000 
556.000000	235.606000 
556.500000	242.024000 
557.000000	226.216000 
557.500000	223.054000 
558.000000	223.818000 
558.500000	217.676000 
559.000000	214.589000 
559.500000	209.858000 
560.000000	211.124000 
560.500000	203.586000 
561.000000	200.559000 
561.500000	201.443000 
562.000000	196.043000 
562.500000	187.093000 
563.000000	183.009000 
563.500000	179.768000 
564.000000	179.911000 
564.500000	170.037000 
565.000000	167.448000 
565.500000	166.046000 
566.000000	162.476000 
566.500000	155.932000 
567.000000	157.031000 
567.500000	146.668000 
568.000000	151.024000 
568.500000	143.737000 
569.000000	142.183000 
569.500000	132.911000 
570.000000	133.213000 
570.500000	130.177000 
571.000000	124.736000 
571.500000	127.806000 
572.000000	121.572000 
572.500000	118.922000 
573.000000	116.914000 
573.500000	114.595000 
574.000000	111.158000 
574.500000	109.215000 
575.000000	108.413000 
575.500000	103.015000 
576.000000	97.877000  
576.500000	97.648000  
577.000000	94.806000  
577.500000	92.834000  
578.000000	92.102999  
578.500000	88.959999  
579.000000	84.944000  
579.500000	84.602000  
580.000000	82.628000  
580.500000	82.574000  
581.000000	81.858000  
581.500000	78.218000  
582.000000	75.027000  
582.500000	73.956000  
583.000000	72.867000  
583.500000	74.979000  
584.000000	70.629000  
584.500000	72.748000  
585.000000	66.742000  
585.500000	66.480000  
586.000000	64.505000  
586.500000	58.517000  
587.000000	62.201000  
587.500000	58.053000  
588.000000	58.325000  
588.500000	60.387000  
589.000000	59.708000  
589.500000	56.470000  
590.000000	58.603000  
590.500000	55.423000  
591.000000	49.168000  
591.500000	53.933000  
592.000000	53.631000  
592.500000	50.809000  
593.000000	51.028000  
593.500000	48.941000  
594.000000	46.471000  
594.500000	43.627000  
595.000000	44.352000  
595.500000	46.580000  
596.000000	41.070000  
596.500000	43.108000  
597.000000	40.878000  
597.500000	41.701000  
598.000000	41.291000  
598.500000	41.397000  
599.000000	37.589000  
599.500000	39.682000  
600.000000	35.714000  
600.500000	36.411000  
601.000000	35.367000  
601.500000	35.824000  
602.000000	35.203000  
602.500000	34.728000  
603.000000	35.534000  
603.500000	33.478000  
604.000000	33.706000  
604.500000	31.787000  
605.000000	30.023000  
605.500000	30.313000  
606.000000	28.895000  
606.500000	31.424000  
607.000000	30.211000  
607.500000	27.097000  
608.000000	27.659000  
608.500000	28.462000  
609.000000	27.383000  
609.500000	27.502000  
610.000000	25.174000  
610.500000	23.905000  
611.000000	27.060000  
611.500000	24.768000  
612.000000	24.600000  
612.500000	25.416000  
613.000000	22.184000  
613.500000	22.504000  
614.000000	23.242000  
614.500000	21.733000  
615.000000	21.541000  
615.500000	21.264000  
616.000000	20.881000  
616.500000	19.519000  
617.000000	20.269000  
617.500000	18.866000  
618.000000	19.790000  
618.500000	18.213000  
619.000000	19.656000  
619.500000	17.503000  
620.000000	16.497000  
620.500000	17.450000  
621.000000	17.149000  
621.500000	17.065000  
622.000000	16.480000  
622.500000	14.885000  
623.000000	16.009000  
623.500000	14.740000  
624.000000	15.338000  
624.500000	13.886000  
625.000000	13.917000  
625.500000	14.330000  
626.000000	13.822000  
626.500000	13.835000  
627.000000	12.928000  
627.500000	13.407000  
628.000000	11.267000  
628.500000	12.353000  
629.000000	12.530000  
629.500000	10.501000  
630.000000	11.251000  
630.500000	11.243000  
631.000000	11.597000  
631.500000	10.988000  
632.000000	9.585000   
632.500000	9.612000   
633.000000	10.067000  
633.500000	8.842000   
634.000000	9.926000   
634.500000	9.188000   
635.000000	9.468000   
635.500000	8.795000   
636.000000	9.204000   
636.500000	8.218999   
637.000000	9.109999   
637.500000	7.479000   
638.000000	8.818000   
638.500000	7.740000   
639.000000	7.467000   
639.500000	6.221000   
640.000000	6.424000   
640.500000	7.150000   
641.000000	6.198000   
641.500000	5.983000   
642.000000	6.832000   
642.500000	6.572000   
643.000000	6.196000   
643.500000	6.080000   
644.000000	5.612000   
644.500000	5.707000   
645.000000	5.527000   
645.500000	5.059000   
646.000000	5.328000   
646.500000	5.414000   
647.000000	6.172000   
647.500000	5.543000   
648.000000	4.800000   
648.500000	5.000000   
649.000000	5.573000   
649.500000	5.304000   
650.000000	5.233000   
650.500000	4.770000   
651.000000	4.897000   
651.500000	4.773000   
652.000000	3.817000   
652.500000	4.287000   
653.000000	4.342000   
653.500000	4.484000   
654.000000	4.337000   
654.500000	4.256000   
655.000000	4.452000   
655.500000	3.766000   
656.000000	3.593000   
656.500000	3.576000   
657.000000	3.795000   
657.500000	3.300000   
658.000000	3.184000   
658.500000	3.760000   
659.000000	3.659000   
659.500000	3.738000   
660.000000	2.676000   
660.500000	3.415000   
661.000000	3.095000   
661.500000	3.300000   
662.000000	2.625000   
662.500000	2.847000   
663.000000	3.357000   
663.500000	3.092000   
664.000000	3.260000   
664.500000	2.635000   
665.000000	2.907000   
665.500000	2.812000   
666.000000	3.194000   
666.500000	2.144000   
667.000000	2.795000   
667.500000	3.375000   
668.000000	2.630000   
668.500000	2.543000   
669.000000	2.331000   
669.500000	2.537000   
670.000000	2.606000   
670.500000	2.506000   
671.000000	2.226000   
671.500000	2.056000   
672.000000	2.102000   
672.500000	2.205000   
673.000000	2.478000   
673.500000	2.109000   
674.000000	2.395000   
674.500000	2.213000   
675.000000	1.661000   
675.500000	2.289000   
676.000000	2.832000   
676.500000	2.329000   
677.000000	1.406000   
677.500000	2.264000   
678.000000	1.466000   
678.500000	1.609000   
679.000000	1.557000   
679.500000	2.302000   
680.000000	1.819000   
680.500000	1.895000   
681.000000	1.517000   
681.500000	1.129000   
682.000000	1.813000   
682.500000	1.843000   
683.000000	1.926000   
683.500000	1.341000   
684.000000	1.515000   
684.500000	1.856000   
685.000000	1.761000   
685.500000	1.726000   
686.000000	1.828000   
686.500000	1.530000   
687.000000	1.327000   
687.500000	1.705000   
688.000000	1.261000   
688.500000	1.622000   
689.000000	1.306000   
689.500000	1.142000   
690.000000	1.166000   
690.500000	1.500000   
691.000000	1.729000   
691.500000	1.693000   
692.000000	1.205000   
692.500000	1.364000   
693.000000	1.450000   
693.500000	1.441000   
694.000000	1.178000   
694.500000	1.356000   
695.000000	1.498000   
695.500000	1.098000   
696.000000	1.212000   
696.500000	1.085000   
697.000000	1.177000   
697.500000	1.137000   
698.000000	1.470000   
698.500000	1.061000   
699.000000	1.584000   
699.500000	1.448000   
700.000000	1.421000   
700.500000	1.395000   

