PE FL                   SPECTRUM    ASCII       PEDS        1.60        
  -1
DMB014.SP
23/03/01
16:40:27.00
23/03/01
16:41:28.00


700.500000
1









LS50-B
415.00
2.50
2.50
SCAN
1
20
100
100
0
400
0
1
0
1
7
ON
700 415 
1 0 0
#HDR
-1
-1
#GR
NM
INT 
0.00002384185791015625
0.0
380.000000
0.500000
642
8
695.122000
-0.020000
#DATA
380.000000	-0.020000  
380.500000	0.333000   
381.000000	0.208000   
381.500000	0.176000   
382.000000	0.336000   
382.500000	0.332000   
383.000000	0.342000   
383.500000	0.240000   
384.000000	0.177000   
384.500000	0.091000   
385.000000	0.354000   
385.500000	0.187000   
386.000000	0.242000   
386.500000	0.189000   
387.000000	0.112000   
387.500000	0.143000   
388.000000	0.408000   
388.500000	0.365000   
389.000000	0.197000   
389.500000	0.376000   
390.000000	0.277000   
390.500000	0.302000   
391.000000	0.515000   
391.500000	0.287000   
392.000000	0.184000   
392.500000	0.270000   
393.000000	0.394000   
393.500000	0.234000   
394.000000	0.411000   
394.500000	0.312000   
395.000000	0.148000   
395.500000	0.227000   
396.000000	0.109000   
396.500000	0.258000   
397.000000	0.339000   
397.500000	0.177000   
398.000000	0.409000   
398.500000	0.365000   
399.000000	0.557000   
399.500000	0.419000   
400.000000	0.387000   
400.500000	0.329000   
401.000000	0.319000   
401.500000	0.374000   
402.000000	0.328000   
402.500000	0.373000   
403.000000	0.316000   
403.500000	0.367000   
404.000000	0.389000   
404.500000	0.527000   
405.000000	0.551000   
405.500000	0.425000   
406.000000	0.367000   
406.500000	0.399000   
407.000000	0.425000   
407.500000	0.487000   
408.000000	1.242000   
408.500000	0.968000   
409.000000	1.704000   
409.500000	4.336000   
410.000000	7.422000   
410.500000	13.182000  
411.000000	25.326000  
411.500000	36.351000  
412.000000	53.103000  
412.500000	73.956999  
413.000000	95.688000  
413.500000	109.543000 
414.000000	118.735000 
414.500000	109.769000 
415.000000	99.176000  
415.500000	81.430000  
416.000000	58.355000  
416.500000	35.307000  
417.000000	21.360000  
417.500000	11.061000  
418.000000	7.096000   
418.500000	3.527000   
419.000000	2.133000   
419.500000	1.078000   
420.000000	1.087000   
420.500000	0.813999   
421.000000	0.746000   
421.500000	0.898000   
422.000000	0.621000   
422.500000	0.764000   
423.000000	0.478000   
423.500000	0.663000   
424.000000	0.578000   
424.500000	0.691999   
425.000000	0.689999   
425.500000	0.668000   
426.000000	0.556000   
426.500000	0.691999   
427.000000	0.885000   
427.500000	0.675000   
428.000000	0.404000   
428.500000	0.685000   
429.000000	1.003000   
429.500000	0.587000   
430.000000	0.638000   
430.500000	0.855000   
431.000000	0.799000   
431.500000	0.830000   
432.000000	0.658000   
432.500000	0.773000   
433.000000	1.100000   
433.500000	1.005000   
434.000000	0.936000   
434.500000	1.278000   
435.000000	0.921000   
435.500000	1.206000   
436.000000	0.814999   
436.500000	1.022000   
437.000000	1.172000   
437.500000	1.128000   
438.000000	0.910000   
438.500000	1.097000   
439.000000	1.081000   
439.500000	1.356000   
440.000000	1.188000   
440.500000	1.307000   
441.000000	1.364000   
441.500000	1.339000   
442.000000	1.600000   
442.500000	1.345000   
443.000000	1.440000   
443.500000	1.664000   
444.000000	1.410000   
444.500000	1.680000   
445.000000	1.633000   
445.500000	1.513000   
446.000000	2.251000   
446.500000	2.026000   
447.000000	1.606000   
447.500000	1.929000   
448.000000	2.340000   
448.500000	2.542000   
449.000000	1.714000   
449.500000	2.714000   
450.000000	2.078000   
450.500000	2.721000   
451.000000	2.471000   
451.500000	1.921000   
452.000000	2.523000   
452.500000	2.654000   
453.000000	2.867000   
453.500000	2.567000   
454.000000	2.784000   
454.500000	2.400000   
455.000000	2.095000   
455.500000	2.241000   
456.000000	2.482000   
456.500000	2.420000   
457.000000	2.561000   
457.500000	2.745000   
458.000000	2.428000   
458.500000	3.082000   
459.000000	3.163000   
459.500000	2.738000   
460.000000	2.283000   
460.500000	3.181000   
461.000000	2.700000   
461.500000	3.336000   
462.000000	3.219000   
462.500000	3.552000   
463.000000	3.102000   
463.500000	3.621000   
464.000000	3.123000   
464.500000	3.025000   
465.000000	3.079000   
465.500000	2.972000   
466.000000	3.313000   
466.500000	2.941000   
467.000000	2.792000   
467.500000	3.678000   
468.000000	3.234000   
468.500000	3.796000   
469.000000	4.035000   
469.500000	2.697000   
470.000000	3.787000   
470.500000	3.680000   
471.000000	2.879000   
471.500000	3.884000   
472.000000	3.682000   
472.500000	3.547000   
473.000000	3.974000   
473.500000	3.590000   
474.000000	4.528000   
474.500000	3.905000   
475.000000	4.131000   
475.500000	4.416000   
476.000000	4.576000   
476.500000	4.508000   
477.000000	4.031000   
477.500000	5.032000   
478.000000	4.963000   
478.500000	4.893000   
479.000000	5.205000   
479.500000	6.492000   
480.000000	6.255000   
480.500000	6.521000   
481.000000	6.580000   
481.500000	6.425000   
482.000000	7.548000   
482.500000	8.013000   
483.000000	9.119000   
483.500000	9.585000   
484.000000	10.140000  
484.500000	10.645000  
485.000000	12.583000  
485.500000	12.371000  
486.000000	12.752000  
486.500000	14.879000  
487.000000	15.317000  
487.500000	18.765000  
488.000000	17.432000  
488.500000	18.255000  
489.000000	21.540000  
489.500000	21.971000  
490.000000	24.491000  
490.500000	28.068000  
491.000000	29.764000  
491.500000	31.304000  
492.000000	36.624000  
492.500000	39.520000  
493.000000	40.867000  
493.500000	43.073000  
494.000000	51.156000  
494.500000	55.664000  
495.000000	59.397000  
495.500000	68.694999  
496.000000	73.999000  
496.500000	79.535000  
497.000000	85.208000  
497.500000	93.614999  
498.000000	100.443000 
498.500000	109.874000 
499.000000	121.637000 
499.500000	126.597000 
500.000000	141.990000 
500.500000	158.720000 
501.000000	167.971000 
501.500000	179.785000 
502.000000	196.220000 
502.500000	213.531000 
503.000000	218.583000 
503.500000	246.062000 
504.000000	260.269000 
504.500000	274.469000 
505.000000	289.143000 
505.500000	319.217000 
506.000000	330.348000 
506.500000	361.408000 
507.000000	380.161000 
507.500000	387.797000 
508.000000	420.133000 
508.500000	436.898000 
509.000000	448.600000 
509.500000	490.173000 
510.000000	511.505000 
510.500000	525.578000 
511.000000	545.394000 
511.500000	554.881999 
512.000000	582.754000 
512.500000	595.423000 
513.000000	615.323000 
513.500000	600.601000 
514.000000	632.219000 
514.500000	654.222000 
515.000000	649.577000 
515.500000	657.496000 
516.000000	669.921000 
516.500000	695.122000 
517.000000	689.215000 
517.500000	686.498000 
518.000000	676.793000 
518.500000	676.590000 
519.000000	693.263000 
519.500000	680.910999 
520.000000	687.924000 
520.500000	679.705000 
521.000000	676.840000 
521.500000	672.944000 
522.000000	665.312000 
522.500000	670.098000 
523.000000	657.707000 
523.500000	643.698000 
524.000000	647.951000 
524.500000	635.030999 
525.000000	620.183000 
525.500000	608.316000 
526.000000	610.093000 
526.500000	596.352000 
527.000000	593.393000 
527.500000	567.849000 
528.000000	575.928000 
528.500000	559.708000 
529.000000	555.918000 
529.500000	543.455000 
530.000000	523.886999 
530.500000	507.209000 
531.000000	502.873000 
531.500000	503.567000 
532.000000	488.119000 
532.500000	497.313000 
533.000000	480.820000 
533.500000	464.764000 
534.000000	451.129000 
534.500000	451.376000 
535.000000	437.656000 
535.500000	443.456000 
536.000000	425.805000 
536.500000	408.617000 
537.000000	411.237000 
537.500000	406.502000 
538.000000	390.435000 
538.500000	390.940000 
539.000000	383.078000 
539.500000	380.296000 
540.000000	371.366000 
540.500000	363.057000 
541.000000	355.603000 
541.500000	355.104000 
542.000000	338.683000 
542.500000	340.265000 
543.000000	337.104000 
543.500000	334.940000 
544.000000	319.280000 
544.500000	328.800000 
545.000000	319.586000 
545.500000	313.323000 
546.000000	305.288000 
546.500000	296.922000 
547.000000	291.842000 
547.500000	288.278000 
548.000000	283.735000 
548.500000	283.761000 
549.000000	275.448000 
549.500000	280.121000 
550.000000	266.512000 
550.500000	259.211000 
551.000000	255.879000 
551.500000	243.660000 
552.000000	244.778000 
552.500000	242.096000 
553.000000	241.335000 
553.500000	246.362000 
554.000000	227.804000 
554.500000	229.185000 
555.000000	227.374000 
555.500000	213.711000 
556.000000	219.477000 
556.500000	214.154000 
557.000000	211.164000 
557.500000	207.697000 
558.000000	205.238000 
558.500000	199.544000 
559.000000	197.980000 
559.500000	187.285000 
560.000000	189.806000 
560.500000	184.280000 
561.000000	184.344000 
561.500000	182.750000 
562.000000	168.674000 
562.500000	174.198000 
563.000000	170.457000 
563.500000	163.118000 
564.000000	157.568000 
564.500000	152.270000 
565.000000	153.070000 
565.500000	150.180000 
566.000000	146.739000 
566.500000	141.266000 
567.000000	142.500000 
567.500000	138.621000 
568.000000	131.470000 
568.500000	128.538000 
569.000000	127.349000 
569.500000	126.323000 
570.000000	121.102000 
570.500000	119.788000 
571.000000	116.486000 
571.500000	118.122000 
572.000000	110.708000 
572.500000	113.179000 
573.000000	107.288000 
573.500000	104.917000 
574.000000	103.280000 
574.500000	100.793000 
575.000000	98.953000  
575.500000	90.672000  
576.000000	92.251000  
576.500000	86.765000  
577.000000	87.300000  
577.500000	85.382000  
578.000000	84.983999  
578.500000	80.404000  
579.000000	83.878000  
579.500000	75.941999  
580.000000	73.640000  
580.500000	72.549000  
581.000000	71.256000  
581.500000	71.351000  
582.000000	68.819999  
582.500000	69.747000  
583.000000	68.746000  
583.500000	66.173000  
584.000000	61.944000  
584.500000	61.731000  
585.000000	64.833000  
585.500000	57.222000  
586.000000	61.581000  
586.500000	61.115000  
587.000000	56.281000  
587.500000	57.682000  
588.000000	53.806000  
588.500000	52.135000  
589.000000	52.954000  
589.500000	50.286000  
590.000000	51.274000  
590.500000	50.378000  
591.000000	48.124000  
591.500000	47.701000  
592.000000	45.477000  
592.500000	45.719000  
593.000000	44.236000  
593.500000	45.176000  
594.000000	42.635000  
594.500000	42.940000  
595.000000	43.214000  
595.500000	40.788000  
596.000000	39.331000  
596.500000	39.091000  
597.000000	38.955000  
597.500000	38.676000  
598.000000	38.543000  
598.500000	36.585000  
599.000000	36.580000  
599.500000	37.244000  
600.000000	32.585000  
600.500000	33.720000  
601.000000	32.874000  
601.500000	32.605000  
602.000000	33.011000  
602.500000	33.287000  
603.000000	32.533000  
603.500000	29.860000  
604.000000	29.424000  
604.500000	30.261000  
605.000000	28.976000  
605.500000	30.773000  
606.000000	27.910000  
606.500000	26.126000  
607.000000	27.994000  
607.500000	28.383000  
608.000000	26.851000  
608.500000	26.418000  
609.000000	24.589000  
609.500000	24.975000  
610.000000	23.063000  
610.500000	23.528000  
611.000000	21.782000  
611.500000	22.714000  
612.000000	21.706000  
612.500000	22.295000  
613.000000	23.347000  
613.500000	21.779000  
614.000000	20.337000  
614.500000	20.061000  
615.000000	19.134000  
615.500000	20.261000  
616.000000	19.481000  
616.500000	19.428000  
617.000000	19.107000  
617.500000	17.784000  
618.000000	19.332000  
618.500000	17.655000  
619.000000	18.038000  
619.500000	16.431000  
620.000000	15.556000  
620.500000	14.390000  
621.000000	13.926000  
621.500000	14.311000  
622.000000	15.287000  
622.500000	14.340000  
623.000000	14.986000  
623.500000	14.744000  
624.000000	12.960000  
624.500000	12.925000  
625.000000	14.128000  
625.500000	11.838000  
626.000000	13.341000  
626.500000	11.543000  
627.000000	11.721000  
627.500000	12.175000  
628.000000	11.244000  
628.500000	10.365000  
629.000000	10.008000  
629.500000	11.735000  
630.000000	10.617000  
630.500000	9.794000   
631.000000	9.987000   
631.500000	8.906000   
632.000000	9.759000   
632.500000	9.083000   
633.000000	8.670000   
633.500000	9.782999   
634.000000	9.071999   
634.500000	9.647000   
635.000000	8.532000   
635.500000	9.914000   
636.000000	8.971000   
636.500000	7.227000   
637.000000	7.574000   
637.500000	7.392000   
638.000000	7.956000   
638.500000	7.246000   
639.000000	7.019000   
639.500000	6.257000   
640.000000	6.825000   
640.500000	6.500000   
641.000000	5.958000   
641.500000	6.280000   
642.000000	6.986000   
642.500000	6.047000   
643.000000	5.735000   
643.500000	6.287000   
644.000000	6.000000   
644.500000	6.720000   
645.000000	6.385000   
645.500000	5.436000   
646.000000	5.480000   
646.500000	4.927000   
647.000000	4.129000   
647.500000	6.050000   
648.000000	4.640000   
648.500000	5.309000   
649.000000	3.961000   
649.500000	4.667000   
650.000000	4.730000   
650.500000	4.314000   
651.000000	4.424000   
651.500000	4.626000   
652.000000	4.179000   
652.500000	4.222000   
653.000000	3.347000   
653.500000	3.734000   
654.000000	3.873000   
654.500000	4.057000   
655.000000	3.238000   
655.500000	4.114000   
656.000000	3.748000   
656.500000	3.729000   
657.000000	2.991000   
657.500000	3.371000   
658.000000	3.869000   
658.500000	3.243000   
659.000000	3.100000   
659.500000	3.600000   
660.000000	2.855000   
660.500000	3.011000   
661.000000	3.311000   
661.500000	2.979000   
662.000000	2.968000   
662.500000	2.422000   
663.000000	3.525000   
663.500000	2.935000   
664.000000	2.907000   
664.500000	2.377000   
665.000000	2.408000   
665.500000	2.755000   
666.000000	2.774000   
666.500000	2.872000   
667.000000	2.688000   
667.500000	2.222000   
668.000000	2.430000   
668.500000	2.225000   
669.000000	2.554000   
669.500000	2.724000   
670.000000	2.206000   
670.500000	2.322000   
671.000000	2.450000   
671.500000	2.025000   
672.000000	1.768000   
672.500000	2.824000   
673.000000	2.226000   
673.500000	2.378000   
674.000000	2.027000   
674.500000	2.692000   
675.000000	2.342000   
675.500000	1.787000   
676.000000	2.019000   
676.500000	2.058000   
677.000000	1.536000   
677.500000	1.052000   
678.000000	1.556000   
678.500000	1.784000   
679.000000	1.586000   
679.500000	1.419000   
680.000000	1.794000   
680.500000	1.384000   
681.000000	1.079000   
681.500000	1.808000   
682.000000	1.620000   
682.500000	1.703000   
683.000000	2.133000   
683.500000	1.182000   
684.000000	1.716000   
684.500000	1.523000   
685.000000	1.506000   
685.500000	1.273000   
686.000000	1.749000   
686.500000	1.544000   
687.000000	1.593000   
687.500000	1.477000   
688.000000	1.520000   
688.500000	1.388000   
689.000000	1.667000   
689.500000	1.075000   
690.000000	1.523000   
690.500000	1.322000   
691.000000	1.709000   
691.500000	1.039000   
692.000000	1.194000   
692.500000	1.102000   
693.000000	1.157000   
693.500000	1.131000   
694.000000	1.355000   
694.500000	1.220000   
695.000000	1.094000   
695.500000	1.479000   
696.000000	1.069000   
696.500000	1.072000   
697.000000	0.947000   
697.500000	1.209000   
698.000000	1.063000   
698.500000	1.159000   
699.000000	1.034000   
699.500000	0.761000   
700.000000	0.958000   
700.500000	1.154000   

