PE FL                   SPECTRUM    ASCII       PEDS        1.60        
  -1
DMB019.SP
23/03/01
17:00:49.00
23/03/01
17:01:50.00


700.500000
1









LS50-B
415.00
2.50
2.50
SCAN
1
20
100
100
0
400
0
1
0
1
7
ON
700 415 
1 0 0
#HDR
-1
-1
#GR
NM
INT 
0.00002384185791015625
0.0
380.000000
0.500000
642
8
528.822000
0.000000
#DATA
380.000000	0.190000   
380.500000	0.137000   
381.000000	0.000000   
381.500000	0.155000   
382.000000	0.335000   
382.500000	0.300000   
383.000000	0.430000   
383.500000	0.176000   
384.000000	0.160000   
384.500000	0.328000   
385.000000	0.230000   
385.500000	0.110000   
386.000000	0.394000   
386.500000	0.284000   
387.000000	0.246000   
387.500000	0.506000   
388.000000	0.252000   
388.500000	0.190000   
389.000000	0.235000   
389.500000	0.154000   
390.000000	0.157000   
390.500000	0.022000   
391.000000	0.248000   
391.500000	0.310000   
392.000000	0.101000   
392.500000	0.183000   
393.000000	0.404000   
393.500000	0.442000   
394.000000	0.295000   
394.500000	0.575000   
395.000000	0.313000   
395.500000	0.449000   
396.000000	0.270000   
396.500000	0.366000   
397.000000	0.427000   
397.500000	0.540000   
398.000000	0.103000   
398.500000	0.217000   
399.000000	0.372000   
399.500000	0.000000   
400.000000	0.264000   
400.500000	0.387000   
401.000000	0.217000   
401.500000	0.239000   
402.000000	0.359000   
402.500000	0.337000   
403.000000	0.311000   
403.500000	0.372000   
404.000000	0.403000   
404.500000	0.167000   
405.000000	0.663000   
405.500000	0.065000   
406.000000	0.527000   
406.500000	0.719000   
407.000000	0.423000   
407.500000	0.672000   
408.000000	0.680000   
408.500000	0.786000   
409.000000	1.235000   
409.500000	3.481000   
410.000000	5.897000   
410.500000	10.505000  
411.000000	19.702000  
411.500000	31.215000  
412.000000	49.066000  
412.500000	66.383000  
413.000000	78.798000  
413.500000	91.870000  
414.000000	97.138000  
414.500000	94.054000  
415.000000	82.851000  
415.500000	66.239000  
416.000000	47.919000  
416.500000	28.506000  
417.000000	19.466000  
417.500000	11.294000  
418.000000	5.553000   
418.500000	2.691000   
419.000000	1.292000   
419.500000	1.191000   
420.000000	0.822000   
420.500000	0.554000   
421.000000	0.439000   
421.500000	0.648000   
422.000000	0.488000   
422.500000	0.398000   
423.000000	0.555000   
423.500000	0.365000   
424.000000	0.970000   
424.500000	0.718000   
425.000000	0.534000   
425.500000	0.362000   
426.000000	0.516000   
426.500000	0.690999   
427.000000	0.407000   
427.500000	0.565999   
428.000000	0.796000   
428.500000	0.735000   
429.000000	0.722000   
429.500000	0.634000   
430.000000	0.574000   
430.500000	0.651000   
431.000000	0.751000   
431.500000	0.733000   
432.000000	0.928000   
432.500000	0.825000   
433.000000	0.967000   
433.500000	0.773000   
434.000000	0.765000   
434.500000	0.909000   
435.000000	1.166000   
435.500000	0.739000   
436.000000	0.613000   
436.500000	1.010000   
437.000000	1.059000   
437.500000	0.714000   
438.000000	0.602000   
438.500000	1.017000   
439.000000	1.038000   
439.500000	1.028000   
440.000000	0.718000   
440.500000	0.889000   
441.000000	1.123000   
441.500000	1.245000   
442.000000	1.196000   
442.500000	1.249000   
443.000000	1.064000   
443.500000	1.024000   
444.000000	1.197000   
444.500000	1.060000   
445.000000	1.632000   
445.500000	1.767000   
446.000000	1.455000   
446.500000	1.763000   
447.000000	2.117000   
447.500000	1.661000   
448.000000	1.969000   
448.500000	1.029000   
449.000000	1.332000   
449.500000	1.685000   
450.000000	1.396000   
450.500000	1.682000   
451.000000	1.231000   
451.500000	1.236000   
452.000000	1.613000   
452.500000	2.246000   
453.000000	1.939000   
453.500000	1.792000   
454.000000	1.541000   
454.500000	1.339000   
455.000000	1.808000   
455.500000	2.321000   
456.000000	2.027000   
456.500000	1.544000   
457.000000	1.771000   
457.500000	2.094000   
458.000000	2.509000   
458.500000	1.798000   
459.000000	2.206000   
459.500000	2.996000   
460.000000	1.831000   
460.500000	2.338000   
461.000000	2.646000   
461.500000	1.754000   
462.000000	2.773000   
462.500000	2.197000   
463.000000	2.409000   
463.500000	2.072000   
464.000000	1.903000   
464.500000	2.105000   
465.000000	2.358000   
465.500000	2.193000   
466.000000	2.431000   
466.500000	2.082000   
467.000000	2.334000   
467.500000	3.117000   
468.000000	2.257000   
468.500000	1.873000   
469.000000	1.979000   
469.500000	3.197000   
470.000000	2.435000   
470.500000	2.358000   
471.000000	2.827000   
471.500000	2.418000   
472.000000	2.829000   
472.500000	2.902000   
473.000000	2.338000   
473.500000	2.721000   
474.000000	3.413000   
474.500000	3.204000   
475.000000	2.794000   
475.500000	2.895000   
476.000000	3.246000   
476.500000	3.213000   
477.000000	3.402000   
477.500000	3.754000   
478.000000	3.385000   
478.500000	3.503000   
479.000000	3.999000   
479.500000	3.114000   
480.000000	4.344000   
480.500000	4.833000   
481.000000	4.950000   
481.500000	5.339000   
482.000000	5.379000   
482.500000	5.802000   
483.000000	6.139000   
483.500000	7.058000   
484.000000	8.183000   
484.500000	7.943000   
485.000000	8.946000   
485.500000	9.673000   
486.000000	8.942000   
486.500000	9.417000   
487.000000	10.120000  
487.500000	12.532000  
488.000000	13.013000  
488.500000	14.944000  
489.000000	15.287000  
489.500000	15.428000  
490.000000	17.768000  
490.500000	19.844000  
491.000000	22.506000  
491.500000	19.914000  
492.000000	27.345000  
492.500000	27.900000  
493.000000	29.127000  
493.500000	31.241000  
494.000000	34.053000  
494.500000	40.108000  
495.000000	42.906000  
495.500000	47.154000  
496.000000	50.710000  
496.500000	55.440000  
497.000000	60.952000  
497.500000	68.973000  
498.000000	72.794000  
498.500000	82.146000  
499.000000	88.587000  
499.500000	92.008000  
500.000000	102.812000 
500.500000	109.167000 
501.000000	120.121000 
501.500000	134.011000 
502.000000	137.106000 
502.500000	149.389000 
503.000000	168.966000 
503.500000	176.992000 
504.000000	191.781000 
504.500000	199.133000 
505.000000	215.612000 
505.500000	239.732000 
506.000000	249.641000 
506.500000	261.807000 
507.000000	274.371000 
507.500000	290.743000 
508.000000	294.680000 
508.500000	315.541000 
509.000000	331.825000 
509.500000	353.042000 
510.000000	372.641000 
510.500000	382.512000 
511.000000	394.937000 
511.500000	407.506000 
512.000000	418.665000 
512.500000	434.513000 
513.000000	452.020000 
513.500000	472.939000 
514.000000	478.493000 
514.500000	489.452000 
515.000000	496.450000 
515.500000	497.792000 
516.000000	507.361000 
516.500000	520.635000 
517.000000	528.822000 
517.500000	512.383000 
518.000000	516.240000 
518.500000	513.588000 
519.000000	521.009000 
519.500000	523.173000 
520.000000	515.785999 
520.500000	527.752000 
521.000000	518.099000 
521.500000	521.163000 
522.000000	501.987000 
522.500000	513.696000 
523.000000	502.760000 
523.500000	489.334000 
524.000000	493.457000 
524.500000	481.978000 
525.000000	478.387000 
525.500000	481.943000 
526.000000	473.624000 
526.500000	466.339000 
527.000000	448.455000 
527.500000	438.765000 
528.000000	448.157000 
528.500000	436.698000 
529.000000	418.155000 
529.500000	425.719000 
530.000000	417.637000 
530.500000	410.547000 
531.000000	406.340000 
531.500000	398.776000 
532.000000	386.157000 
532.500000	378.284000 
533.000000	369.013000 
533.500000	353.149000 
534.000000	359.227000 
534.500000	354.055000 
535.000000	342.901000 
535.500000	344.488000 
536.000000	341.623000 
536.500000	331.394000 
537.000000	321.406000 
537.500000	317.606000 
538.000000	315.957000 
538.500000	310.814000 
539.000000	305.004000 
539.500000	309.158000 
540.000000	291.795000 
540.500000	290.012000 
541.000000	285.542000 
541.500000	274.508000 
542.000000	281.154000 
542.500000	274.895000 
543.000000	266.800000 
543.500000	260.821000 
544.000000	256.180000 
544.500000	252.700000 
545.000000	254.983000 
545.500000	243.504000 
546.000000	244.645000 
546.500000	238.554000 
547.000000	237.605000 
547.500000	229.466000 
548.000000	227.566000 
548.500000	228.427000 
549.000000	219.814000 
549.500000	218.057000 
550.000000	217.372000 
550.500000	211.596000 
551.000000	209.251000 
551.500000	208.920000 
552.000000	201.742000 
552.500000	197.428000 
553.000000	199.755000 
553.500000	200.012000 
554.000000	195.703000 
554.500000	188.376000 
555.000000	186.018000 
555.500000	178.662000 
556.000000	178.590000 
556.500000	171.647000 
557.000000	171.587000 
557.500000	170.651000 
558.000000	164.926000 
558.500000	162.092000 
559.000000	163.378000 
559.500000	157.136000 
560.000000	152.002000 
560.500000	152.936000 
561.000000	153.572000 
561.500000	148.244000 
562.000000	142.114000 
562.500000	140.180000 
563.000000	137.131000 
563.500000	134.099000 
564.000000	132.071000 
564.500000	130.349000 
565.000000	126.348000 
565.500000	127.588000 
566.000000	119.990000 
566.500000	117.064000 
567.000000	114.426000 
567.500000	113.912000 
568.000000	111.306000 
568.500000	107.717000 
569.000000	107.801000 
569.500000	102.488000 
570.000000	100.066000 
570.500000	96.995000  
571.000000	95.578999  
571.500000	91.468000  
572.000000	92.845000  
572.500000	87.587999  
573.000000	87.316999  
573.500000	86.035000  
574.000000	86.264000  
574.500000	81.602999  
575.000000	79.055000  
575.500000	77.771000  
576.000000	74.214000  
576.500000	73.057000  
577.000000	71.819999  
577.500000	71.303000  
578.000000	70.807000  
578.500000	71.470000  
579.000000	64.208000  
579.500000	63.792000  
580.000000	65.253000  
580.500000	61.802000  
581.000000	60.507000  
581.500000	61.606000  
582.000000	59.208000  
582.500000	58.042000  
583.000000	52.191000  
583.500000	53.235000  
584.000000	52.265000  
584.500000	50.943000  
585.000000	53.779000  
585.500000	49.831000  
586.000000	47.660000  
586.500000	48.579000  
587.000000	47.872000  
587.500000	47.245000  
588.000000	45.585000  
588.500000	45.479000  
589.000000	45.146000  
589.500000	41.326000  
590.000000	40.505000  
590.500000	40.192000  
591.000000	39.797000  
591.500000	40.635000  
592.000000	39.272000  
592.500000	40.207000  
593.000000	38.659000  
593.500000	35.491000  
594.000000	37.407000  
594.500000	36.512000  
595.000000	33.312000  
595.500000	35.176000  
596.000000	34.278000  
596.500000	32.609000  
597.000000	30.030000  
597.500000	31.752000  
598.000000	33.719000  
598.500000	32.629000  
599.000000	30.600000  
599.500000	31.643000  
600.000000	29.137000  
600.500000	27.471000  
601.000000	28.619000  
601.500000	30.207000  
602.000000	26.444000  
602.500000	25.812000  
603.000000	27.444000  
603.500000	23.118000  
604.000000	25.440000  
604.500000	26.309000  
605.000000	23.166000  
605.500000	24.188000  
606.000000	24.190000  
606.500000	24.199000  
607.000000	22.055000  
607.500000	25.567000  
608.000000	22.149000  
608.500000	21.916000  
609.000000	23.247000  
609.500000	21.199000  
610.000000	19.643000  
610.500000	18.538000  
611.000000	19.220000  
611.500000	17.936000  
612.000000	18.436000  
612.500000	18.483000  
613.000000	18.741000  
613.500000	19.375000  
614.000000	18.776000  
614.500000	16.672000  
615.000000	17.053000  
615.500000	16.542000  
616.000000	16.007000  
616.500000	16.918000  
617.000000	16.597000  
617.500000	15.728000  
618.000000	14.909000  
618.500000	13.843000  
619.000000	14.590000  
619.500000	12.717000  
620.000000	13.682000  
620.500000	13.638000  
621.000000	13.368000  
621.500000	12.462000  
622.000000	13.005000  
622.500000	11.372000  
623.000000	12.253000  
623.500000	11.856000  
624.000000	12.565000  
624.500000	11.277000  
625.000000	10.902000  
625.500000	11.684000  
626.000000	10.831000  
626.500000	11.394000  
627.000000	10.404000  
627.500000	10.046000  
628.000000	9.630000   
628.500000	9.206000   
629.000000	8.646000   
629.500000	10.654000  
630.000000	9.010999   
630.500000	8.646000   
631.000000	8.829000   
631.500000	9.157999   
632.000000	8.528000   
632.500000	7.728000   
633.000000	7.568000   
633.500000	6.392000   
634.000000	7.313000   
634.500000	7.319000   
635.000000	7.009000   
635.500000	7.124000   
636.000000	6.636000   
636.500000	6.406000   
637.000000	6.387000   
637.500000	6.512000   
638.000000	6.355000   
638.500000	6.111000   
639.000000	6.000000   
639.500000	4.557000   
640.000000	5.713000   
640.500000	5.595000   
641.000000	5.556000   
641.500000	5.305000   
642.000000	5.155000   
642.500000	5.319000   
643.000000	4.873000   
643.500000	5.078000   
644.000000	4.170000   
644.500000	4.344000   
645.000000	4.799000   
645.500000	4.897000   
646.000000	4.211000   
646.500000	4.049000   
647.000000	4.164000   
647.500000	3.385000   
648.000000	4.313000   
648.500000	4.013000   
649.000000	4.096000   
649.500000	3.712000   
650.000000	4.158000   
650.500000	4.422000   
651.000000	4.528000   
651.500000	3.426000   
652.000000	3.157000   
652.500000	2.914000   
653.000000	2.859000   
653.500000	3.749000   
654.000000	3.486000   
654.500000	2.833000   
655.000000	2.585000   
655.500000	2.553000   
656.000000	3.229000   
656.500000	2.962000   
657.000000	2.614000   
657.500000	3.363000   
658.000000	2.321000   
658.500000	2.812000   
659.000000	3.207000   
659.500000	3.007000   
660.000000	3.137000   
660.500000	2.581000   
661.000000	1.821000   
661.500000	2.604000   
662.000000	2.528000   
662.500000	2.216000   
663.000000	2.210000   
663.500000	2.553000   
664.000000	2.705000   
664.500000	2.776000   
665.000000	2.411000   
665.500000	1.710000   
666.000000	2.092000   
666.500000	2.510000   
667.000000	2.287000   
667.500000	2.010000   
668.000000	1.553000   
668.500000	1.888000   
669.000000	1.616000   
669.500000	2.456000   
670.000000	2.300000   
670.500000	2.005000   
671.000000	1.463000   
671.500000	1.757000   
672.000000	1.934000   
672.500000	2.020000   
673.000000	1.979000   
673.500000	2.400000   
674.000000	1.810000   
674.500000	1.671000   
675.000000	1.578000   
675.500000	1.396000   
676.000000	1.712000   
676.500000	1.936000   
677.000000	1.430000   
677.500000	1.454000   
678.000000	1.839000   
678.500000	1.530000   
679.000000	0.914000   
679.500000	1.894000   
680.000000	1.753000   
680.500000	1.934000   
681.000000	1.437000   
681.500000	2.043000   
682.000000	1.399000   
682.500000	1.476000   
683.000000	1.265000   
683.500000	1.489000   
684.000000	1.342000   
684.500000	1.328000   
685.000000	1.008000   
685.500000	1.358000   
686.000000	1.289000   
686.500000	1.110000   
687.000000	1.135000   
687.500000	0.961000   
688.000000	1.155000   
688.500000	1.073000   
689.000000	1.031000   
689.500000	1.038000   
690.000000	1.132000   
690.500000	1.131000   
691.000000	1.598000   
691.500000	0.649000   
692.000000	0.878000   
692.500000	0.915000   
693.000000	0.743000   
693.500000	1.359000   
694.000000	1.489000   
694.500000	1.015000   
695.000000	0.927000   
695.500000	1.258000   
696.000000	1.121000   
696.500000	1.056000   
697.000000	0.524000   
697.500000	1.228000   
698.000000	0.999000   
698.500000	1.018000   
699.000000	1.027000   
699.500000	1.162000   
700.000000	0.820000   
700.500000	0.479000   

