PE FL                   SPECTRUM    ASCII       PEDS        1.60        
  -1
DMB013.SP
23/03/01
16:36:46.00
23/03/01
16:37:47.00


700.500000
1









LS50-B
415.00
2.50
2.50
SCAN
1
20
100
100
0
400
0
1
0
1
7
ON
700 415 
1 0 0
#HDR
-1
-1
#GR
NM
INT 
0.00002384185791015625
0.0
380.000000
0.500000
642
8
628.599000
0.000000
#DATA
380.000000	0.000000   
380.500000	0.168000   
381.000000	0.471000   
381.500000	0.322000   
382.000000	0.238000   
382.500000	0.298000   
383.000000	0.333000   
383.500000	0.415000   
384.000000	0.187000   
384.500000	0.250000   
385.000000	0.129000   
385.500000	0.630000   
386.000000	0.322000   
386.500000	0.430000   
387.000000	0.338000   
387.500000	0.176000   
388.000000	0.202000   
388.500000	0.400000   
389.000000	0.256000   
389.500000	0.175000   
390.000000	0.406000   
390.500000	0.377000   
391.000000	0.537000   
391.500000	0.357000   
392.000000	0.345000   
392.500000	0.166000   
393.000000	0.332000   
393.500000	0.486000   
394.000000	0.426000   
394.500000	0.306000   
395.000000	0.440000   
395.500000	0.417000   
396.000000	0.386000   
396.500000	0.282000   
397.000000	0.304000   
397.500000	0.322000   
398.000000	0.230000   
398.500000	0.148000   
399.000000	0.168000   
399.500000	0.409000   
400.000000	0.161000   
400.500000	0.149000   
401.000000	0.520000   
401.500000	0.422000   
402.000000	0.550000   
402.500000	0.788000   
403.000000	0.551000   
403.500000	0.287000   
404.000000	0.563999   
404.500000	0.532000   
405.000000	0.291000   
405.500000	0.426000   
406.000000	0.620000   
406.500000	0.497000   
407.000000	0.418000   
407.500000	0.730000   
408.000000	0.729000   
408.500000	1.260000   
409.000000	1.600000   
409.500000	4.337000   
410.000000	7.280000   
410.500000	12.585000  
411.000000	20.995000  
411.500000	31.877000  
412.000000	50.699000  
412.500000	68.941999  
413.000000	90.241000  
413.500000	103.387000 
414.000000	109.714000 
414.500000	103.003000 
415.000000	88.578000  
415.500000	72.318000  
416.000000	51.059000  
416.500000	33.961000  
417.000000	20.870000  
417.500000	12.854000  
418.000000	6.384000   
418.500000	3.118000   
419.000000	1.533000   
419.500000	1.056000   
420.000000	0.696000   
420.500000	0.618000   
421.000000	0.444000   
421.500000	0.858000   
422.000000	0.869000   
422.500000	0.647000   
423.000000	0.730000   
423.500000	0.666000   
424.000000	0.614000   
424.500000	0.440000   
425.000000	0.559000   
425.500000	0.936000   
426.000000	1.047000   
426.500000	0.519000   
427.000000	0.531000   
427.500000	0.854000   
428.000000	0.615000   
428.500000	0.665000   
429.000000	0.768000   
429.500000	0.631000   
430.000000	0.687999   
430.500000	0.788000   
431.000000	0.815999   
431.500000	0.902000   
432.000000	0.704000   
432.500000	0.881000   
433.000000	1.260000   
433.500000	0.767000   
434.000000	0.844000   
434.500000	0.888000   
435.000000	1.082000   
435.500000	0.992000   
436.000000	1.135000   
436.500000	1.087000   
437.000000	1.353000   
437.500000	1.086000   
438.000000	1.205000   
438.500000	0.963000   
439.000000	1.008000   
439.500000	0.960000   
440.000000	0.816999   
440.500000	1.131000   
441.000000	1.557000   
441.500000	1.226000   
442.000000	1.726000   
442.500000	1.582000   
443.000000	1.337000   
443.500000	1.905000   
444.000000	2.055000   
444.500000	1.627000   
445.000000	1.970000   
445.500000	1.626000   
446.000000	1.826000   
446.500000	2.225000   
447.000000	2.179000   
447.500000	2.253000   
448.000000	2.053000   
448.500000	1.782000   
449.000000	1.917000   
449.500000	1.768000   
450.000000	1.726000   
450.500000	1.758000   
451.000000	2.508000   
451.500000	2.707000   
452.000000	2.288000   
452.500000	3.131000   
453.000000	2.894000   
453.500000	3.173000   
454.000000	2.615000   
454.500000	2.684000   
455.000000	2.055000   
455.500000	2.700000   
456.000000	2.728000   
456.500000	2.712000   
457.000000	2.676000   
457.500000	2.431000   
458.000000	2.544000   
458.500000	2.922000   
459.000000	2.910000   
459.500000	2.651000   
460.000000	2.710000   
460.500000	2.633000   
461.000000	3.002000   
461.500000	3.120000   
462.000000	2.941000   
462.500000	3.065000   
463.000000	3.310000   
463.500000	3.270000   
464.000000	3.391000   
464.500000	3.115000   
465.000000	3.785000   
465.500000	2.780000   
466.000000	3.362000   
466.500000	3.579000   
467.000000	3.856000   
467.500000	3.657000   
468.000000	2.864000   
468.500000	2.975000   
469.000000	2.288000   
469.500000	3.542000   
470.000000	3.341000   
470.500000	3.605000   
471.000000	3.838000   
471.500000	4.430000   
472.000000	3.781000   
472.500000	3.170000   
473.000000	3.395000   
473.500000	4.011000   
474.000000	3.535000   
474.500000	3.883000   
475.000000	3.975000   
475.500000	4.278000   
476.000000	4.256000   
476.500000	4.256000   
477.000000	4.754000   
477.500000	4.875000   
478.000000	4.609000   
478.500000	5.642000   
479.000000	6.019000   
479.500000	6.429000   
480.000000	5.885000   
480.500000	6.328000   
481.000000	6.174000   
481.500000	7.595000   
482.000000	8.369999   
482.500000	8.134000   
483.000000	9.115000   
483.500000	8.567000   
484.000000	10.158000  
484.500000	10.888000  
485.000000	11.188000  
485.500000	13.243000  
486.000000	13.047000  
486.500000	14.814000  
487.000000	16.201000  
487.500000	16.064000  
488.000000	16.894000  
488.500000	18.761000  
489.000000	21.743000  
489.500000	21.901000  
490.000000	24.914000  
490.500000	26.369000  
491.000000	29.487000  
491.500000	31.649000  
492.000000	35.951000  
492.500000	39.524000  
493.000000	40.985000  
493.500000	46.377000  
494.000000	48.108000  
494.500000	54.475000  
495.000000	60.330000  
495.500000	64.209000  
496.000000	71.569000  
496.500000	74.742000  
497.000000	87.389000  
497.500000	90.664000  
498.000000	100.803000 
498.500000	111.037000 
499.000000	119.383000 
499.500000	129.418000 
500.000000	140.792000 
500.500000	152.317000 
501.000000	165.455000 
501.500000	179.024000 
502.000000	188.954000 
502.500000	206.080000 
503.000000	215.383000 
503.500000	241.982000 
504.000000	251.358000 
504.500000	271.310000 
505.000000	283.747000 
505.500000	302.455000 
506.000000	319.309000 
506.500000	337.039000 
507.000000	359.806000 
507.500000	386.609000 
508.000000	388.955000 
508.500000	412.055000 
509.000000	443.012000 
509.500000	447.730000 
510.000000	461.505000 
510.500000	482.416000 
511.000000	497.769000 
511.500000	523.152000 
512.000000	523.212000 
512.500000	549.869000 
513.000000	555.473000 
513.500000	559.985000 
514.000000	577.298000 
514.500000	583.394000 
515.000000	611.096000 
515.500000	617.651000 
516.000000	608.452000 
516.500000	619.997000 
517.000000	621.126000 
517.500000	621.585000 
518.000000	621.699000 
518.500000	628.599000 
519.000000	617.955000 
519.500000	626.133000 
520.000000	612.616000 
520.500000	618.230000 
521.000000	593.077000 
521.500000	598.982000 
522.000000	601.856000 
522.500000	592.412000 
523.000000	590.847000 
523.500000	572.396000 
524.000000	569.466000 
524.500000	556.443000 
525.000000	559.429999 
525.500000	543.208999 
526.000000	542.009000 
526.500000	520.149000 
527.000000	526.617000 
527.500000	516.429000 
528.000000	504.830000 
528.500000	491.663000 
529.000000	487.135000 
529.500000	485.423000 
530.000000	470.987000 
530.500000	464.889000 
531.000000	456.109000 
531.500000	446.004000 
532.000000	435.087000 
532.500000	430.247000 
533.000000	412.890000 
533.500000	419.452000 
534.000000	395.984000 
534.500000	399.209000 
535.000000	384.602000 
535.500000	405.250000 
536.000000	373.846000 
536.500000	366.149000 
537.000000	362.015000 
537.500000	351.480000 
538.000000	352.805000 
538.500000	348.753000 
539.000000	338.895000 
539.500000	331.768000 
540.000000	324.199000 
540.500000	322.145000 
541.000000	318.809000 
541.500000	318.127000 
542.000000	303.599000 
542.500000	306.926000 
543.000000	304.498000 
543.500000	294.131000 
544.000000	290.144000 
544.500000	279.499000 
545.000000	273.101000 
545.500000	270.704000 
546.000000	273.934000 
546.500000	267.293000 
547.000000	266.630000 
547.500000	265.936000 
548.000000	252.319000 
548.500000	250.529000 
549.000000	244.206000 
549.500000	239.186000 
550.000000	237.088000 
550.500000	231.820000 
551.000000	225.928000 
551.500000	226.151000 
552.000000	226.850000 
552.500000	219.518000 
553.000000	214.723000 
553.500000	220.464000 
554.000000	210.387000 
554.500000	207.888000 
555.000000	206.326000 
555.500000	201.119000 
556.000000	194.920000 
556.500000	191.028000 
557.000000	185.266000 
557.500000	192.983000 
558.000000	182.810000 
558.500000	177.797000 
559.000000	171.408000 
559.500000	168.599000 
560.000000	172.300000 
560.500000	167.390000 
561.000000	162.962000 
561.500000	155.132000 
562.000000	153.590000 
562.500000	157.073000 
563.000000	151.297000 
563.500000	154.888000 
564.000000	147.637000 
564.500000	142.830000 
565.000000	136.617000 
565.500000	133.918000 
566.000000	135.990000 
566.500000	131.138000 
567.000000	124.311000 
567.500000	123.946000 
568.000000	121.509000 
568.500000	120.525000 
569.000000	114.688000 
569.500000	115.644000 
570.000000	112.114000 
570.500000	108.638000 
571.000000	102.404000 
571.500000	100.148000 
572.000000	100.177000 
572.500000	96.471000  
573.000000	92.058000  
573.500000	93.081999  
574.000000	98.834000  
574.500000	89.027000  
575.000000	83.452000  
575.500000	84.813999  
576.000000	83.733999  
576.500000	77.739000  
577.000000	80.545000  
577.500000	75.614000  
578.000000	79.761000  
578.500000	73.249000  
579.000000	75.004000  
579.500000	74.057000  
580.000000	71.377000  
580.500000	65.373000  
581.000000	61.277000  
581.500000	64.828000  
582.000000	62.001000  
582.500000	61.748000  
583.000000	58.383000  
583.500000	60.536000  
584.000000	56.678000  
584.500000	57.158000  
585.000000	54.223000  
585.500000	53.317000  
586.000000	54.538000  
586.500000	51.199000  
587.000000	49.867000  
587.500000	53.444000  
588.000000	51.434000  
588.500000	48.593000  
589.000000	47.928000  
589.500000	47.090000  
590.000000	47.778000  
590.500000	45.487000  
591.000000	42.796000  
591.500000	41.121000  
592.000000	43.787000  
592.500000	41.725000  
593.000000	40.981000  
593.500000	38.562000  
594.000000	39.912000  
594.500000	38.588000  
595.000000	39.288000  
595.500000	36.891000  
596.000000	37.134000  
596.500000	35.220000  
597.000000	36.048000  
597.500000	36.538000  
598.000000	32.078000  
598.500000	33.274000  
599.000000	33.517000  
599.500000	31.005000  
600.000000	31.575000  
600.500000	33.156000  
601.000000	32.546000  
601.500000	31.655000  
602.000000	27.147000  
602.500000	29.099000  
603.000000	28.186000  
603.500000	27.804000  
604.000000	28.450000  
604.500000	27.211000  
605.000000	26.686000  
605.500000	27.603000  
606.000000	24.909000  
606.500000	24.231000  
607.000000	25.033000  
607.500000	23.268000  
608.000000	23.435000  
608.500000	22.294000  
609.000000	22.757000  
609.500000	20.695000  
610.000000	22.666000  
610.500000	22.238000  
611.000000	21.255000  
611.500000	19.178000  
612.000000	20.234000  
612.500000	20.275000  
613.000000	18.448000  
613.500000	19.960000  
614.000000	20.063000  
614.500000	17.657000  
615.000000	17.898000  
615.500000	17.282000  
616.000000	19.179000  
616.500000	18.358000  
617.000000	18.568000  
617.500000	17.476000  
618.000000	14.189000  
618.500000	15.406000  
619.000000	15.828000  
619.500000	14.497000  
620.000000	16.147000  
620.500000	15.190000  
621.000000	14.333000  
621.500000	14.938000  
622.000000	12.771000  
622.500000	13.149000  
623.000000	13.672000  
623.500000	13.465000  
624.000000	11.731000  
624.500000	12.185000  
625.000000	11.829000  
625.500000	13.194000  
626.000000	12.028000  
626.500000	11.631000  
627.000000	11.027000  
627.500000	10.246000  
628.000000	8.698000   
628.500000	8.342000   
629.000000	10.323000  
629.500000	8.958000   
630.000000	9.691000   
630.500000	8.222000   
631.000000	9.387000   
631.500000	9.166000   
632.000000	8.750000   
632.500000	8.347000   
633.000000	9.070000   
633.500000	8.087999   
634.000000	7.944000   
634.500000	8.321000   
635.000000	6.619000   
635.500000	8.234999   
636.000000	7.116000   
636.500000	7.213000   
637.000000	6.454000   
637.500000	5.522000   
638.000000	7.015000   
638.500000	5.776000   
639.000000	5.815000   
639.500000	5.999000   
640.000000	6.468000   
640.500000	6.170000   
641.000000	5.798000   
641.500000	5.034000   
642.000000	5.366000   
642.500000	6.013000   
643.000000	5.120000   
643.500000	4.704000   
644.000000	4.621000   
644.500000	5.078000   
645.000000	5.571000   
645.500000	4.074000   
646.000000	4.703000   
646.500000	4.526000   
647.000000	4.434000   
647.500000	5.577000   
648.000000	4.866000   
648.500000	4.853000   
649.000000	4.076000   
649.500000	4.970000   
650.000000	4.003000   
650.500000	4.558000   
651.000000	3.149000   
651.500000	3.060000   
652.000000	4.775000   
652.500000	3.930000   
653.000000	3.835000   
653.500000	3.383000   
654.000000	3.711000   
654.500000	2.597000   
655.000000	3.674000   
655.500000	2.930000   
656.000000	2.904000   
656.500000	2.929000   
657.000000	3.108000   
657.500000	3.988000   
658.000000	3.482000   
658.500000	3.831000   
659.000000	3.495000   
659.500000	4.569000   
660.000000	2.703000   
660.500000	2.388000   
661.000000	2.544000   
661.500000	2.682000   
662.000000	2.611000   
662.500000	2.120000   
663.000000	2.942000   
663.500000	2.322000   
664.000000	3.395000   
664.500000	2.622000   
665.000000	2.112000   
665.500000	2.923000   
666.000000	2.900000   
666.500000	2.244000   
667.000000	1.973000   
667.500000	2.785000   
668.000000	2.238000   
668.500000	2.247000   
669.000000	2.058000   
669.500000	2.209000   
670.000000	2.553000   
670.500000	2.517000   
671.000000	2.448000   
671.500000	2.022000   
672.000000	2.011000   
672.500000	1.617000   
673.000000	1.694000   
673.500000	1.737000   
674.000000	1.908000   
674.500000	2.155000   
675.000000	1.816000   
675.500000	1.741000   
676.000000	1.380000   
676.500000	1.907000   
677.000000	1.836000   
677.500000	1.451000   
678.000000	1.906000   
678.500000	2.029000   
679.000000	1.533000   
679.500000	1.214000   
680.000000	1.817000   
680.500000	1.629000   
681.000000	1.290000   
681.500000	1.910000   
682.000000	1.755000   
682.500000	1.488000   
683.000000	1.287000   
683.500000	1.276000   
684.000000	1.229000   
684.500000	1.334000   
685.000000	1.272000   
685.500000	1.211000   
686.000000	1.137000   
686.500000	1.017000   
687.000000	1.276000   
687.500000	1.068000   
688.000000	1.768000   
688.500000	1.048000   
689.000000	1.180000   
689.500000	1.514000   
690.000000	1.262000   
690.500000	1.248000   
691.000000	1.102000   
691.500000	1.118000   
692.000000	0.792000   
692.500000	1.318000   
693.000000	0.905000   
693.500000	1.287000   
694.000000	1.349000   
694.500000	1.162000   
695.000000	0.969000   
695.500000	0.922000   
696.000000	1.185000   
696.500000	1.258000   
697.000000	1.124000   
697.500000	1.023000   
698.000000	1.129000   
698.500000	0.941999   
699.000000	1.000000   
699.500000	1.409000   
700.000000	0.883000   
700.500000	0.358000   

