PE FL                   SPECTRUM    ASCII       PEDS        1.60        
  -1
DMB026.SP
23/03/01
17:16:00.00
23/03/01
17:17:01.00


700.500000
1









LS50-B
415.00
2.50
2.50
SCAN
1
20
100
100
0
400
0
1
0
1
7
ON
700 415 
1 0 0
#HDR
-1
-1
#GR
NM
INT 
0.00002384185791015625
0.0
380.000000
0.500000
642
8
388.135000
-0.056000
#DATA
380.000000	0.249000   
380.500000	0.270000   
381.000000	0.305000   
381.500000	0.157000   
382.000000	0.213000   
382.500000	0.084000   
383.000000	0.013000   
383.500000	0.192000   
384.000000	0.263000   
384.500000	0.162000   
385.000000	0.297000   
385.500000	-0.056000  
386.000000	0.210000   
386.500000	0.117000   
387.000000	0.107000   
387.500000	0.244000   
388.000000	-0.036000  
388.500000	0.094000   
389.000000	-0.053000  
389.500000	0.236000   
390.000000	0.226000   
390.500000	0.148000   
391.000000	0.115000   
391.500000	0.110000   
392.000000	0.176000   
392.500000	0.220000   
393.000000	0.220000   
393.500000	0.437000   
394.000000	0.045000   
394.500000	0.275000   
395.000000	0.192000   
395.500000	0.179000   
396.000000	0.152000   
396.500000	0.296000   
397.000000	0.280000   
397.500000	0.131000   
398.000000	0.246000   
398.500000	0.143000   
399.000000	0.390000   
399.500000	0.455000   
400.000000	0.142000   
400.500000	0.118000   
401.000000	0.187000   
401.500000	0.309000   
402.000000	0.087999   
402.500000	0.340000   
403.000000	0.225000   
403.500000	0.000000   
404.000000	0.190000   
404.500000	0.384000   
405.000000	0.258000   
405.500000	0.430000   
406.000000	0.234000   
406.500000	0.301000   
407.000000	0.276000   
407.500000	0.245000   
408.000000	0.385000   
408.500000	0.853000   
409.000000	1.257000   
409.500000	1.889000   
410.000000	3.750000   
410.500000	7.349000   
411.000000	11.280000  
411.500000	19.103000  
412.000000	26.555000  
412.500000	37.703000  
413.000000	47.932000  
413.500000	53.846000  
414.000000	55.798000  
414.500000	53.796000  
415.000000	46.648000  
415.500000	38.465000  
416.000000	29.464000  
416.500000	16.865000  
417.000000	11.231000  
417.500000	7.383000   
418.000000	4.125000   
418.500000	1.727000   
419.000000	1.203000   
419.500000	0.769000   
420.000000	0.164000   
420.500000	0.343000   
421.000000	0.696000   
421.500000	0.542000   
422.000000	0.383000   
422.500000	0.326000   
423.000000	0.533000   
423.500000	0.465000   
424.000000	0.175000   
424.500000	0.180000   
425.000000	0.433000   
425.500000	0.630000   
426.000000	0.123000   
426.500000	0.257000   
427.000000	0.461000   
427.500000	0.443000   
428.000000	0.751000   
428.500000	0.560000   
429.000000	0.462000   
429.500000	0.546000   
430.000000	0.375000   
430.500000	0.678000   
431.000000	0.649000   
431.500000	0.289000   
432.000000	0.703000   
432.500000	0.555000   
433.000000	0.413000   
433.500000	0.580000   
434.000000	0.384000   
434.500000	0.298000   
435.000000	0.345000   
435.500000	0.624000   
436.000000	0.549000   
436.500000	0.704000   
437.000000	1.023000   
437.500000	0.830000   
438.000000	0.687000   
438.500000	0.735000   
439.000000	0.815999   
439.500000	0.893000   
440.000000	0.635000   
440.500000	0.616000   
441.000000	0.695000   
441.500000	0.721000   
442.000000	0.964000   
442.500000	0.738000   
443.000000	1.035000   
443.500000	0.767000   
444.000000	0.427000   
444.500000	0.860000   
445.000000	1.183000   
445.500000	1.263000   
446.000000	1.319000   
446.500000	1.443000   
447.000000	1.380000   
447.500000	0.835000   
448.000000	1.138000   
448.500000	1.029000   
449.000000	0.708000   
449.500000	1.199000   
450.000000	1.261000   
450.500000	1.255000   
451.000000	0.924000   
451.500000	1.685000   
452.000000	1.209000   
452.500000	1.477000   
453.000000	1.450000   
453.500000	1.471000   
454.000000	1.379000   
454.500000	1.330000   
455.000000	1.023000   
455.500000	1.712000   
456.000000	1.666000   
456.500000	1.510000   
457.000000	1.917000   
457.500000	0.869000   
458.000000	1.456000   
458.500000	1.442000   
459.000000	1.578000   
459.500000	1.091000   
460.000000	1.487000   
460.500000	1.545000   
461.000000	1.491000   
461.500000	1.496000   
462.000000	1.678000   
462.500000	1.409000   
463.000000	1.726000   
463.500000	1.334000   
464.000000	1.844000   
464.500000	1.463000   
465.000000	1.903000   
465.500000	1.225000   
466.000000	1.976000   
466.500000	1.580000   
467.000000	1.758000   
467.500000	2.266000   
468.000000	1.851000   
468.500000	1.199000   
469.000000	1.919000   
469.500000	1.766000   
470.000000	2.317000   
470.500000	2.127000   
471.000000	1.587000   
471.500000	1.928000   
472.000000	1.865000   
472.500000	1.900000   
473.000000	2.010000   
473.500000	2.490000   
474.000000	2.185000   
474.500000	2.263000   
475.000000	2.553000   
475.500000	2.708000   
476.000000	2.788000   
476.500000	2.424000   
477.000000	2.625000   
477.500000	3.064000   
478.000000	2.343000   
478.500000	3.392000   
479.000000	2.906000   
479.500000	2.611000   
480.000000	3.757000   
480.500000	3.762000   
481.000000	3.725000   
481.500000	4.492000   
482.000000	3.370000   
482.500000	3.920000   
483.000000	3.728000   
483.500000	4.864000   
484.000000	4.555000   
484.500000	5.839000   
485.000000	5.508000   
485.500000	6.301000   
486.000000	6.153000   
486.500000	6.902000   
487.000000	7.913000   
487.500000	9.115000   
488.000000	9.241000   
488.500000	10.842000  
489.000000	11.106000  
489.500000	11.223000  
490.000000	11.751000  
490.500000	13.035000  
491.000000	13.661000  
491.500000	16.897000  
492.000000	17.261000  
492.500000	19.468000  
493.000000	20.429000  
493.500000	22.723000  
494.000000	26.265000  
494.500000	27.560000  
495.000000	30.352000  
495.500000	34.399000  
496.000000	37.224000  
496.500000	40.010000  
497.000000	40.693000  
497.500000	46.593000  
498.000000	52.339000  
498.500000	58.556000  
499.000000	63.983000  
499.500000	68.117000  
500.000000	73.508000  
500.500000	79.013000  
501.000000	85.247000  
501.500000	97.495000  
502.000000	104.638000 
502.500000	110.276000 
503.000000	122.052000 
503.500000	126.108000 
504.000000	138.983000 
504.500000	146.120000 
505.000000	161.877000 
505.500000	166.563000 
506.000000	172.781000 
506.500000	188.531000 
507.000000	201.979000 
507.500000	211.486000 
508.000000	224.254000 
508.500000	230.348000 
509.000000	239.435000 
509.500000	254.990000 
510.000000	267.386000 
510.500000	276.353000 
511.000000	285.819000 
511.500000	286.414000 
512.000000	309.272000 
512.500000	322.046000 
513.000000	325.537000 
513.500000	331.262000 
514.000000	357.999000 
514.500000	352.804000 
515.000000	354.337000 
515.500000	363.692000 
516.000000	371.936000 
516.500000	382.197000 
517.000000	373.653000 
517.500000	370.985000 
518.000000	383.840000 
518.500000	382.767000 
519.000000	388.135000 
519.500000	381.983000 
520.000000	385.689000 
520.500000	382.489000 
521.000000	385.944000 
521.500000	386.895000 
522.000000	377.804000 
522.500000	367.915000 
523.000000	372.154000 
523.500000	376.142000 
524.000000	358.413000 
524.500000	361.446000 
525.000000	356.011000 
525.500000	362.961000 
526.000000	344.536000 
526.500000	345.235000 
527.000000	338.193000 
527.500000	336.084000 
528.000000	338.673000 
528.500000	333.022000 
529.000000	321.333000 
529.500000	317.883000 
530.000000	307.339000 
530.500000	305.931000 
531.000000	292.353000 
531.500000	299.176000 
532.000000	300.259000 
532.500000	286.917000 
533.000000	280.292000 
533.500000	275.491000 
534.000000	267.124000 
534.500000	265.113000 
535.000000	261.737000 
535.500000	256.037000 
536.000000	257.503000 
536.500000	254.996000 
537.000000	248.902000 
537.500000	240.352000 
538.000000	239.668000 
538.500000	231.293000 
539.000000	223.898000 
539.500000	228.468000 
540.000000	224.901000 
540.500000	221.971000 
541.000000	212.377000 
541.500000	202.817000 
542.000000	211.776000 
542.500000	205.279000 
543.000000	205.815000 
543.500000	196.715000 
544.000000	196.562000 
544.500000	191.986000 
545.000000	190.323000 
545.500000	194.349000 
546.000000	190.688000 
546.500000	187.671000 
547.000000	182.745000 
547.500000	183.051000 
548.000000	179.344000 
548.500000	177.616000 
549.000000	172.258000 
549.500000	172.738000 
550.000000	161.803000 
550.500000	163.933000 
551.000000	158.784000 
551.500000	151.241000 
552.000000	162.285000 
552.500000	156.519000 
553.000000	148.628000 
553.500000	151.594000 
554.000000	145.694000 
554.500000	142.606000 
555.000000	140.772000 
555.500000	139.815000 
556.000000	136.850000 
556.500000	134.224000 
557.000000	134.963000 
557.500000	134.634000 
558.000000	125.034000 
558.500000	125.959000 
559.000000	121.790000 
559.500000	124.861000 
560.000000	119.706000 
560.500000	117.181000 
561.000000	116.806000 
561.500000	114.358000 
562.000000	108.554000 
562.500000	110.288000 
563.000000	108.636000 
563.500000	106.235000 
564.000000	107.612000 
564.500000	104.122000 
565.000000	100.488000 
565.500000	96.584000  
566.000000	93.901000  
566.500000	94.590999  
567.000000	94.644000  
567.500000	87.605999  
568.000000	88.161000  
568.500000	88.247000  
569.000000	82.431000  
569.500000	80.581999  
570.000000	77.552000  
570.500000	79.426000  
571.000000	73.086000  
571.500000	74.458000  
572.000000	74.501000  
572.500000	71.758000  
573.000000	72.417000  
573.500000	68.251000  
574.000000	69.477000  
574.500000	67.699000  
575.000000	63.493000  
575.500000	63.778000  
576.000000	61.416000  
576.500000	59.674000  
577.000000	56.291000  
577.500000	54.705000  
578.000000	55.707000  
578.500000	53.311000  
579.000000	55.226000  
579.500000	52.458000  
580.000000	51.225000  
580.500000	51.729000  
581.000000	47.591000  
581.500000	47.045000  
582.000000	47.181000  
582.500000	44.110000  
583.000000	44.572000  
583.500000	42.896000  
584.000000	43.707000  
584.500000	41.466000  
585.000000	44.073000  
585.500000	39.152000  
586.000000	38.294000  
586.500000	41.191000  
587.000000	37.600000  
587.500000	37.496000  
588.000000	34.360000  
588.500000	36.115000  
589.000000	36.486000  
589.500000	34.365000  
590.000000	32.616000  
590.500000	32.912000  
591.000000	30.918000  
591.500000	33.603000  
592.000000	31.958000  
592.500000	30.869000  
593.000000	31.019000  
593.500000	29.447000  
594.000000	29.741000  
594.500000	28.674000  
595.000000	26.916000  
595.500000	27.998000  
596.000000	26.156000  
596.500000	27.481000  
597.000000	26.181000  
597.500000	27.855000  
598.000000	24.027000  
598.500000	23.416000  
599.000000	26.252000  
599.500000	22.838000  
600.000000	24.259000  
600.500000	23.320000  
601.000000	21.810000  
601.500000	22.374000  
602.000000	23.148000  
602.500000	21.529000  
603.000000	21.288000  
603.500000	23.508000  
604.000000	20.524000  
604.500000	20.931000  
605.000000	18.515000  
605.500000	19.413000  
606.000000	19.314000  
606.500000	18.356000  
607.000000	18.157000  
607.500000	17.759000  
608.000000	18.464000  
608.500000	18.255000  
609.000000	17.827000  
609.500000	16.888000  
610.000000	16.589000  
610.500000	15.516000  
611.000000	15.638000  
611.500000	15.196000  
612.000000	15.136000  
612.500000	15.411000  
613.000000	15.925000  
613.500000	13.813000  
614.000000	13.846000  
614.500000	13.685000  
615.000000	12.617000  
615.500000	12.010000  
616.000000	13.459000  
616.500000	12.059000  
617.000000	11.895000  
617.500000	13.051000  
618.000000	12.779000  
618.500000	12.940000  
619.000000	10.937000  
619.500000	12.404000  
620.000000	11.749000  
620.500000	11.580000  
621.000000	10.753000  
621.500000	12.100000  
622.000000	11.014000  
622.500000	10.009000  
623.000000	9.741000   
623.500000	10.494000  
624.000000	11.253000  
624.500000	10.274000  
625.000000	10.142000  
625.500000	9.103999   
626.000000	8.321999   
626.500000	8.231000   
627.000000	8.340999   
627.500000	9.084000   
628.000000	6.605000   
628.500000	7.648000   
629.000000	7.483000   
629.500000	8.093000   
630.000000	8.614000   
630.500000	7.081000   
631.000000	7.735000   
631.500000	6.130000   
632.000000	6.646000   
632.500000	7.064000   
633.000000	7.121000   
633.500000	6.547000   
634.000000	6.920000   
634.500000	6.630000   
635.000000	6.542000   
635.500000	5.294000   
636.000000	6.024000   
636.500000	4.545000   
637.000000	4.981000   
637.500000	6.457000   
638.000000	5.505000   
638.500000	5.159000   
639.000000	4.903000   
639.500000	5.310000   
640.000000	4.413000   
640.500000	5.014000   
641.000000	4.116000   
641.500000	4.578000   
642.000000	5.441000   
642.500000	4.177000   
643.000000	4.386000   
643.500000	4.235000   
644.000000	3.480000   
644.500000	3.806000   
645.000000	3.925000   
645.500000	3.704000   
646.000000	4.432000   
646.500000	3.556000   
647.000000	2.932000   
647.500000	3.415000   
648.000000	2.992000   
648.500000	3.567000   
649.000000	3.095000   
649.500000	3.499000   
650.000000	3.610000   
650.500000	3.959000   
651.000000	2.948000   
651.500000	2.983000   
652.000000	2.394000   
652.500000	2.866000   
653.000000	2.251000   
653.500000	2.459000   
654.000000	2.353000   
654.500000	2.627000   
655.000000	2.460000   
655.500000	2.533000   
656.000000	2.668000   
656.500000	2.793000   
657.000000	2.236000   
657.500000	1.852000   
658.000000	2.449000   
658.500000	2.619000   
659.000000	2.374000   
659.500000	1.791000   
660.000000	1.828000   
660.500000	2.120000   
661.000000	1.833000   
661.500000	1.730000   
662.000000	2.047000   
662.500000	1.824000   
663.000000	1.963000   
663.500000	2.266000   
664.000000	1.965000   
664.500000	1.932000   
665.000000	2.139000   
665.500000	1.816000   
666.000000	1.918000   
666.500000	1.747000   
667.000000	1.660000   
667.500000	1.589000   
668.000000	1.840000   
668.500000	1.954000   
669.000000	2.082000   
669.500000	1.318000   
670.000000	1.113000   
670.500000	2.075000   
671.000000	1.853000   
671.500000	1.510000   
672.000000	1.659000   
672.500000	1.346000   
673.000000	1.411000   
673.500000	1.811000   
674.000000	1.192000   
674.500000	1.397000   
675.000000	0.955000   
675.500000	1.414000   
676.000000	1.383000   
676.500000	1.470000   
677.000000	1.460000   
677.500000	1.702000   
678.000000	1.305000   
678.500000	1.643000   
679.000000	1.139000   
679.500000	0.865000   
680.000000	1.151000   
680.500000	1.030000   
681.000000	0.843000   
681.500000	1.475000   
682.000000	1.386000   
682.500000	1.268000   
683.000000	1.107000   
683.500000	1.224000   
684.000000	1.146000   
684.500000	1.062000   
685.000000	0.971000   
685.500000	1.325000   
686.000000	1.192000   
686.500000	0.812000   
687.000000	1.171000   
687.500000	1.167000   
688.000000	1.139000   
688.500000	0.915000   
689.000000	0.967000   
689.500000	0.790000   
690.000000	1.043000   
690.500000	1.275000   
691.000000	1.343000   
691.500000	0.716000   
692.000000	0.836000   
692.500000	0.602000   
693.000000	0.494000   
693.500000	0.641000   
694.000000	0.798000   
694.500000	0.762000   
695.000000	0.983000   
695.500000	0.752000   
696.000000	0.703000   
696.500000	0.627000   
697.000000	0.777000   
697.500000	0.638000   
698.000000	0.658000   
698.500000	0.867000   
699.000000	1.033000   
699.500000	0.616000   
700.000000	0.822000   
700.500000	1.027000   

