PE FL                   SPECTRUM    ASCII       PEDS        1.60        
  -1
DMB034.SP
23/03/01
17:43:20.00
23/03/01
17:44:21.00


700.500000
1









LS50-B
415.00
2.50
2.50
SCAN
1
20
100
100
0
400
0
1
0
1
7
ON
700 415 
1 0 0
#HDR
-1
-1
#GR
NM
INT 
0.00002384185791015625
0.0
380.000000
0.500000
642
8
300.424000
-0.067000
#DATA
380.000000	0.055000   
380.500000	0.149000   
381.000000	0.099000   
381.500000	0.055000   
382.000000	0.051000   
382.500000	0.213000   
383.000000	0.335000   
383.500000	0.112000   
384.000000	0.135000   
384.500000	0.185000   
385.000000	0.185000   
385.500000	-0.067000  
386.000000	0.214000   
386.500000	0.224000   
387.000000	0.252000   
387.500000	0.232000   
388.000000	0.125000   
388.500000	0.039000   
389.000000	0.041000   
389.500000	0.407000   
390.000000	0.045000   
390.500000	0.041000   
391.000000	0.111000   
391.500000	0.409000   
392.000000	0.247000   
392.500000	0.266000   
393.000000	0.279000   
393.500000	0.380000   
394.000000	0.221000   
394.500000	0.341000   
395.000000	0.150000   
395.500000	-0.057000  
396.000000	0.247000   
396.500000	0.304000   
397.000000	0.112000   
397.500000	0.111000   
398.000000	0.101000   
398.500000	0.154000   
399.000000	0.261000   
399.500000	0.155000   
400.000000	0.275000   
400.500000	0.300000   
401.000000	0.279000   
401.500000	0.229000   
402.000000	0.213000   
402.500000	0.206000   
403.000000	0.075000   
403.500000	0.180000   
404.000000	0.336000   
404.500000	0.583000   
405.000000	0.352000   
405.500000	0.245000   
406.000000	0.669000   
406.500000	0.685000   
407.000000	0.561000   
407.500000	0.653000   
408.000000	0.862000   
408.500000	1.650000   
409.000000	3.968000   
409.500000	7.544000   
410.000000	15.018000  
410.500000	25.032000  
411.000000	43.492000  
411.500000	58.925000  
412.000000	90.114000  
412.500000	115.938000 
413.000000	136.595000 
413.500000	150.821000 
414.000000	154.185000 
414.500000	143.414000 
415.000000	120.293000 
415.500000	91.604000  
416.000000	69.989000  
416.500000	43.674000  
417.000000	28.070000  
417.500000	15.754000  
418.000000	9.304000   
418.500000	4.726000   
419.000000	2.417000   
419.500000	0.966000   
420.000000	0.852000   
420.500000	0.770000   
421.000000	0.514000   
421.500000	0.376000   
422.000000	0.418000   
422.500000	0.338000   
423.000000	0.549000   
423.500000	0.066000   
424.000000	0.245000   
424.500000	0.247000   
425.000000	0.589000   
425.500000	0.956000   
426.000000	0.287000   
426.500000	0.328000   
427.000000	0.373000   
427.500000	0.312000   
428.000000	0.204000   
428.500000	0.573000   
429.000000	0.544000   
429.500000	0.156000   
430.000000	0.473000   
430.500000	0.514000   
431.000000	0.663000   
431.500000	0.248000   
432.000000	0.468000   
432.500000	0.472000   
433.000000	0.356000   
433.500000	0.588000   
434.000000	0.675000   
434.500000	0.469000   
435.000000	0.374000   
435.500000	0.628000   
436.000000	0.241000   
436.500000	0.719000   
437.000000	0.351000   
437.500000	0.988000   
438.000000	0.445000   
438.500000	0.319000   
439.000000	0.534000   
439.500000	0.447000   
440.000000	0.650000   
440.500000	0.575000   
441.000000	0.788000   
441.500000	0.651000   
442.000000	0.785000   
442.500000	0.417000   
443.000000	0.790000   
443.500000	1.248000   
444.000000	0.603000   
444.500000	0.306000   
445.000000	0.397000   
445.500000	0.477000   
446.000000	0.884000   
446.500000	1.214000   
447.000000	1.240000   
447.500000	0.728000   
448.000000	0.498000   
448.500000	0.789000   
449.000000	1.279000   
449.500000	0.988000   
450.000000	0.587000   
450.500000	1.049000   
451.000000	0.972000   
451.500000	0.678000   
452.000000	1.046000   
452.500000	1.346000   
453.000000	1.785000   
453.500000	1.602000   
454.000000	1.330000   
454.500000	1.409000   
455.000000	0.942999   
455.500000	1.163000   
456.000000	1.476000   
456.500000	1.331000   
457.000000	1.530000   
457.500000	0.893000   
458.000000	1.437000   
458.500000	1.050000   
459.000000	1.182000   
459.500000	0.365000   
460.000000	0.890000   
460.500000	1.287000   
461.000000	0.746000   
461.500000	1.813000   
462.000000	0.974000   
462.500000	1.206000   
463.000000	0.944000   
463.500000	1.300000   
464.000000	1.607000   
464.500000	1.519000   
465.000000	1.259000   
465.500000	1.169000   
466.000000	1.653000   
466.500000	1.417000   
467.000000	1.617000   
467.500000	2.039000   
468.000000	1.428000   
468.500000	1.518000   
469.000000	0.969000   
469.500000	1.012000   
470.000000	1.704000   
470.500000	1.562000   
471.000000	1.302000   
471.500000	1.447000   
472.000000	1.412000   
472.500000	1.580000   
473.000000	1.455000   
473.500000	1.435000   
474.000000	1.813000   
474.500000	1.813000   
475.000000	2.550000   
475.500000	1.200000   
476.000000	1.447000   
476.500000	1.702000   
477.000000	1.919000   
477.500000	2.451000   
478.000000	1.960000   
478.500000	2.153000   
479.000000	2.124000   
479.500000	3.262000   
480.000000	2.334000   
480.500000	2.873000   
481.000000	2.963000   
481.500000	2.446000   
482.000000	3.222000   
482.500000	3.473000   
483.000000	3.805000   
483.500000	2.926000   
484.000000	3.741000   
484.500000	3.774000   
485.000000	4.558000   
485.500000	5.387000   
486.000000	4.617000   
486.500000	5.329000   
487.000000	5.204000   
487.500000	5.212000   
488.000000	7.662000   
488.500000	8.571000   
489.000000	7.274000   
489.500000	9.077999   
490.000000	10.094000  
490.500000	10.264000  
491.000000	11.686000  
491.500000	14.037000  
492.000000	13.716000  
492.500000	14.293000  
493.000000	14.424000  
493.500000	16.969000  
494.000000	18.831000  
494.500000	21.880000  
495.000000	23.478000  
495.500000	23.114000  
496.000000	26.154000  
496.500000	30.350000  
497.000000	32.435000  
497.500000	39.823000  
498.000000	40.837000  
498.500000	44.248000  
499.000000	45.811000  
499.500000	53.309000  
500.000000	56.018000  
500.500000	61.719000  
501.000000	67.830000  
501.500000	64.720000  
502.000000	82.571000  
502.500000	87.030000  
503.000000	89.821000  
503.500000	88.830000  
504.000000	107.395000 
504.500000	110.097000 
505.000000	119.992000 
505.500000	123.299000 
506.000000	131.784000 
506.500000	143.046000 
507.000000	149.780000 
507.500000	162.106000 
508.000000	172.397000 
508.500000	175.398000 
509.000000	180.974000 
509.500000	194.763000 
510.000000	209.852000 
510.500000	213.051000 
511.000000	222.477000 
511.500000	233.204000 
512.000000	245.664000 
512.500000	246.716000 
513.000000	252.992000 
513.500000	266.171000 
514.000000	266.970000 
514.500000	275.521000 
515.000000	280.152000 
515.500000	266.984000 
516.000000	287.819000 
516.500000	283.791000 
517.000000	291.931000 
517.500000	290.950000 
518.000000	293.221000 
518.500000	294.551000 
519.000000	300.424000 
519.500000	297.462000 
520.000000	300.397000 
520.500000	293.659000 
521.000000	291.375000 
521.500000	290.739000 
522.000000	296.046000 
522.500000	295.351000 
523.000000	297.839000 
523.500000	289.165000 
524.000000	290.741000 
524.500000	280.769000 
525.000000	278.181000 
525.500000	282.605000 
526.000000	271.628000 
526.500000	270.782000 
527.000000	267.394000 
527.500000	263.262000 
528.000000	258.876000 
528.500000	249.973000 
529.000000	251.207000 
529.500000	245.905000 
530.000000	241.904000 
530.500000	242.894000 
531.000000	240.332000 
531.500000	232.730000 
532.000000	226.433000 
532.500000	223.562000 
533.000000	221.328000 
533.500000	220.864000 
534.000000	215.021000 
534.500000	211.651000 
535.000000	208.671000 
535.500000	205.627000 
536.000000	206.299000 
536.500000	199.018000 
537.000000	194.908000 
537.500000	197.767000 
538.000000	191.319000 
538.500000	189.675000 
539.000000	192.650000 
539.500000	176.926000 
540.000000	179.714000 
540.500000	175.623000 
541.000000	174.439000 
541.500000	171.497000 
542.000000	164.990000 
542.500000	165.393000 
543.000000	161.733000 
543.500000	162.474000 
544.000000	159.341000 
544.500000	156.135000 
545.000000	160.107000 
545.500000	158.157000 
546.000000	150.398000 
546.500000	151.147000 
547.000000	148.401000 
547.500000	141.069000 
548.000000	143.361000 
548.500000	140.893000 
549.000000	138.728000 
549.500000	142.682000 
550.000000	137.734000 
550.500000	135.946000 
551.000000	134.149000 
551.500000	129.160000 
552.000000	124.675000 
552.500000	123.215000 
553.000000	120.134000 
553.500000	117.861000 
554.000000	121.212000 
554.500000	115.483000 
555.000000	115.183000 
555.500000	119.334000 
556.000000	113.517000 
556.500000	111.214000 
557.000000	109.132000 
557.500000	105.644000 
558.000000	103.385000 
558.500000	103.682000 
559.000000	101.517000 
559.500000	97.258000  
560.000000	97.871000  
560.500000	96.385000  
561.000000	93.116000  
561.500000	92.480999  
562.000000	90.275000  
562.500000	86.525000  
563.000000	84.069000  
563.500000	86.587000  
564.000000	85.584000  
564.500000	81.378000  
565.000000	78.672000  
565.500000	74.589000  
566.000000	76.305000  
566.500000	77.238000  
567.000000	74.557000  
567.500000	79.364999  
568.000000	70.563999  
568.500000	69.269000  
569.000000	66.705000  
569.500000	64.090000  
570.000000	64.402000  
570.500000	65.355999  
571.000000	60.490000  
571.500000	62.915000  
572.000000	56.439000  
572.500000	58.150000  
573.000000	60.193000  
573.500000	55.947000  
574.000000	54.580000  
574.500000	53.941000  
575.000000	53.064000  
575.500000	53.270000  
576.000000	50.447000  
576.500000	46.361000  
577.000000	45.322000  
577.500000	47.303000  
578.000000	45.408000  
578.500000	44.478000  
579.000000	43.606000  
579.500000	43.846000  
580.000000	42.725000  
580.500000	39.785000  
581.000000	38.326000  
581.500000	39.612000  
582.000000	39.011000  
582.500000	37.367000  
583.000000	37.020000  
583.500000	36.293000  
584.000000	34.588000  
584.500000	33.871000  
585.000000	34.021000  
585.500000	31.464000  
586.000000	31.151000  
586.500000	31.000000  
587.000000	31.624000  
587.500000	27.686000  
588.000000	31.251000  
588.500000	31.612000  
589.000000	31.381000  
589.500000	32.091000  
590.000000	27.427000  
590.500000	28.336000  
591.000000	27.560000  
591.500000	26.310000  
592.000000	27.056000  
592.500000	24.420000  
593.000000	24.868000  
593.500000	25.010000  
594.000000	23.331000  
594.500000	22.653000  
595.000000	23.498000  
595.500000	24.299000  
596.000000	22.320000  
596.500000	21.992000  
597.000000	21.272000  
597.500000	20.695000  
598.000000	20.434000  
598.500000	20.190000  
599.000000	21.472000  
599.500000	21.946000  
600.000000	19.561000  
600.500000	19.361000  
601.000000	19.787000  
601.500000	18.597000  
602.000000	17.639000  
602.500000	17.636000  
603.000000	16.736000  
603.500000	19.225000  
604.000000	17.201000  
604.500000	16.362000  
605.000000	15.850000  
605.500000	16.954000  
606.000000	15.576000  
606.500000	15.378000  
607.000000	16.766000  
607.500000	14.103000  
608.000000	15.701000  
608.500000	14.266000  
609.000000	14.896000  
609.500000	14.045000  
610.000000	13.207000  
610.500000	13.459000  
611.000000	14.740000  
611.500000	13.226000  
612.000000	13.245000  
612.500000	12.886000  
613.000000	12.496000  
613.500000	11.806000  
614.000000	12.488000  
614.500000	11.759000  
615.000000	11.292000  
615.500000	11.978000  
616.000000	10.325000  
616.500000	10.711000  
617.000000	10.172000  
617.500000	9.112000   
618.000000	9.118000   
618.500000	9.552000   
619.000000	10.710000  
619.500000	8.635999   
620.000000	9.752000   
620.500000	9.709000   
621.000000	8.159000   
621.500000	7.510000   
622.000000	8.858000   
622.500000	9.440000   
623.000000	9.101000   
623.500000	7.920000   
624.000000	8.784000   
624.500000	7.846000   
625.000000	8.302000   
625.500000	7.899000   
626.000000	7.626000   
626.500000	7.731000   
627.000000	7.001000   
627.500000	6.490000   
628.000000	7.257000   
628.500000	6.316000   
629.000000	6.200000   
629.500000	7.211000   
630.000000	7.396000   
630.500000	5.854000   
631.000000	6.361000   
631.500000	6.182000   
632.000000	5.053000   
632.500000	5.685000   
633.000000	5.663000   
633.500000	5.658000   
634.000000	4.918000   
634.500000	5.319000   
635.000000	5.315000   
635.500000	4.673000   
636.000000	5.830000   
636.500000	5.146000   
637.000000	4.486000   
637.500000	3.183000   
638.000000	4.237000   
638.500000	4.808000   
639.000000	4.183000   
639.500000	5.126000   
640.000000	3.920000   
640.500000	3.711000   
641.000000	3.761000   
641.500000	4.390000   
642.000000	3.494000   
642.500000	3.035000   
643.000000	3.506000   
643.500000	3.795000   
644.000000	3.478000   
644.500000	2.830000   
645.000000	3.355000   
645.500000	3.064000   
646.000000	3.128000   
646.500000	2.793000   
647.000000	2.837000   
647.500000	3.230000   
648.000000	2.777000   
648.500000	3.076000   
649.000000	2.690000   
649.500000	2.765000   
650.000000	2.620000   
650.500000	3.058000   
651.000000	2.711000   
651.500000	2.199000   
652.000000	2.840000   
652.500000	2.972000   
653.000000	2.760000   
653.500000	2.500000   
654.000000	2.282000   
654.500000	2.315000   
655.000000	1.910000   
655.500000	1.710000   
656.000000	2.235000   
656.500000	2.360000   
657.000000	2.561000   
657.500000	1.951000   
658.000000	2.102000   
658.500000	2.093000   
659.000000	1.510000   
659.500000	2.104000   
660.000000	2.100000   
660.500000	1.797000   
661.000000	1.668000   
661.500000	1.746000   
662.000000	2.168000   
662.500000	2.320000   
663.000000	1.667000   
663.500000	1.848000   
664.000000	1.281000   
664.500000	1.376000   
665.000000	1.457000   
665.500000	2.073000   
666.000000	1.377000   
666.500000	1.857000   
667.000000	1.647000   
667.500000	1.073000   
668.000000	1.623000   
668.500000	1.320000   
669.000000	1.768000   
669.500000	1.576000   
670.000000	2.316000   
670.500000	1.574000   
671.000000	1.363000   
671.500000	1.827000   
672.000000	1.162000   
672.500000	1.436000   
673.000000	0.987000   
673.500000	1.723000   
674.000000	1.576000   
674.500000	1.404000   
675.000000	0.881000   
675.500000	1.458000   
676.000000	0.861000   
676.500000	1.321000   
677.000000	1.255000   
677.500000	1.329000   
678.000000	1.499000   
678.500000	1.333000   
679.000000	0.893000   
679.500000	0.857000   
680.000000	1.041000   
680.500000	0.598000   
681.000000	1.128000   
681.500000	1.192000   
682.000000	0.952000   
682.500000	1.006000   
683.000000	1.007000   
683.500000	0.890000   
684.000000	0.838000   
684.500000	0.921000   
685.000000	1.018000   
685.500000	1.093000   
686.000000	0.926000   
686.500000	0.998000   
687.000000	0.723000   
687.500000	0.266000   
688.000000	0.921000   
688.500000	1.108000   
689.000000	0.975000   
689.500000	0.860000   
690.000000	0.436000   
690.500000	0.871000   
691.000000	0.885000   
691.500000	0.935000   
692.000000	0.747000   
692.500000	0.823000   
693.000000	0.623000   
693.500000	1.387000   
694.000000	0.629000   
694.500000	0.486000   
695.000000	0.493000   
695.500000	0.758000   
696.000000	0.863000   
696.500000	0.552000   
697.000000	0.703000   
697.500000	0.553000   
698.000000	0.456000   
698.500000	0.736000   
699.000000	0.663000   
699.500000	0.513000   
700.000000	0.484000   
700.500000	0.456000   

