PE FL                   SPECTRUM    ASCII       PEDS        1.60        
  -1
DMB023.SP
23/03/01
17:09:14.00
23/03/01
17:10:15.00


700.500000
1









LS50-B
415.00
2.50
2.50
SCAN
1
20
100
100
0
400
0
1
0
1
7
ON
700 415 
1 0 0
#HDR
-1
-1
#GR
NM
INT 
0.00002384185791015625
0.0
380.000000
0.500000
642
8
449.443000
0.006000
#DATA
380.000000	0.284000   
380.500000	0.187000   
381.000000	0.163000   
381.500000	0.199000   
382.000000	0.222000   
382.500000	0.199000   
383.000000	0.246000   
383.500000	0.366000   
384.000000	0.110000   
384.500000	0.112000   
385.000000	0.131000   
385.500000	0.111000   
386.000000	0.270000   
386.500000	0.224000   
387.000000	0.195000   
387.500000	0.246000   
388.000000	0.220000   
388.500000	0.172000   
389.000000	0.022000   
389.500000	0.366000   
390.000000	0.275000   
390.500000	0.150000   
391.000000	0.269000   
391.500000	0.245000   
392.000000	0.299000   
392.500000	0.006000   
393.000000	0.235000   
393.500000	0.198000   
394.000000	0.129000   
394.500000	0.159000   
395.000000	0.024000   
395.500000	0.055000   
396.000000	0.382000   
396.500000	0.278000   
397.000000	0.102000   
397.500000	0.112000   
398.000000	0.086999   
398.500000	0.269000   
399.000000	0.231000   
399.500000	0.317000   
400.000000	0.280000   
400.500000	0.183000   
401.000000	0.145000   
401.500000	0.356000   
402.000000	0.172000   
402.500000	0.275000   
403.000000	0.303000   
403.500000	0.135000   
404.000000	0.275000   
404.500000	0.215000   
405.000000	0.524000   
405.500000	0.087999   
406.000000	0.180000   
406.500000	0.361000   
407.000000	0.491000   
407.500000	0.567999   
408.000000	0.685000   
408.500000	1.064000   
409.000000	1.507000   
409.500000	2.794000   
410.000000	5.486000   
410.500000	9.757000   
411.000000	15.364000  
411.500000	24.150000  
412.000000	36.700000  
412.500000	53.586000  
413.000000	66.717000  
413.500000	77.007000  
414.000000	76.316999  
414.500000	74.690000  
415.000000	62.775000  
415.500000	47.944000  
416.000000	37.559000  
416.500000	21.877000  
417.000000	13.439000  
417.500000	8.164000   
418.000000	4.823000   
418.500000	2.575000   
419.000000	1.477000   
419.500000	0.991000   
420.000000	0.640000   
420.500000	0.419000   
421.000000	0.414000   
421.500000	0.354000   
422.000000	0.503000   
422.500000	0.363000   
423.000000	0.388000   
423.500000	0.506000   
424.000000	0.661000   
424.500000	0.528000   
425.000000	0.430000   
425.500000	0.632000   
426.000000	0.475000   
426.500000	0.245000   
427.000000	0.636000   
427.500000	0.242000   
428.000000	0.172000   
428.500000	0.336000   
429.000000	0.419000   
429.500000	0.278000   
430.000000	0.345000   
430.500000	0.641000   
431.000000	0.657000   
431.500000	0.726000   
432.000000	0.563999   
432.500000	0.698000   
433.000000	0.545000   
433.500000	0.958000   
434.000000	0.508000   
434.500000	0.632000   
435.000000	0.703000   
435.500000	0.658000   
436.000000	0.313000   
436.500000	0.613000   
437.000000	0.584000   
437.500000	0.509000   
438.000000	1.001000   
438.500000	0.734000   
439.000000	1.038000   
439.500000	0.576000   
440.000000	1.213000   
440.500000	1.448000   
441.000000	0.992000   
441.500000	0.913000   
442.000000	1.255000   
442.500000	0.749000   
443.000000	1.286000   
443.500000	0.949000   
444.000000	0.728000   
444.500000	1.019000   
445.000000	0.965000   
445.500000	1.086000   
446.000000	1.161000   
446.500000	1.274000   
447.000000	1.446000   
447.500000	1.041000   
448.000000	1.314000   
448.500000	1.150000   
449.000000	1.345000   
449.500000	1.553000   
450.000000	1.584000   
450.500000	1.895000   
451.000000	1.537000   
451.500000	1.417000   
452.000000	1.254000   
452.500000	1.536000   
453.000000	1.702000   
453.500000	1.837000   
454.000000	1.180000   
454.500000	1.400000   
455.000000	1.888000   
455.500000	2.416000   
456.000000	1.620000   
456.500000	1.805000   
457.000000	1.780000   
457.500000	1.993000   
458.000000	1.602000   
458.500000	1.566000   
459.000000	1.974000   
459.500000	2.584000   
460.000000	1.708000   
460.500000	1.868000   
461.000000	1.982000   
461.500000	1.856000   
462.000000	1.589000   
462.500000	2.654000   
463.000000	1.972000   
463.500000	1.652000   
464.000000	2.065000   
464.500000	2.161000   
465.000000	1.653000   
465.500000	1.773000   
466.000000	1.988000   
466.500000	2.281000   
467.000000	2.316000   
467.500000	1.560000   
468.000000	2.347000   
468.500000	2.413000   
469.000000	2.761000   
469.500000	3.257000   
470.000000	2.138000   
470.500000	2.169000   
471.000000	1.853000   
471.500000	2.127000   
472.000000	2.929000   
472.500000	2.307000   
473.000000	2.439000   
473.500000	1.895000   
474.000000	2.248000   
474.500000	1.992000   
475.000000	2.625000   
475.500000	2.708000   
476.000000	2.858000   
476.500000	2.754000   
477.000000	2.928000   
477.500000	2.813000   
478.000000	2.739000   
478.500000	2.724000   
479.000000	2.922000   
479.500000	3.674000   
480.000000	3.740000   
480.500000	3.804000   
481.000000	4.038000   
481.500000	4.626000   
482.000000	4.898000   
482.500000	4.705000   
483.000000	5.779000   
483.500000	5.346000   
484.000000	5.770000   
484.500000	6.837000   
485.000000	6.063000   
485.500000	6.426000   
486.000000	8.028000   
486.500000	8.518000   
487.000000	9.220000   
487.500000	10.791000  
488.000000	11.001000  
488.500000	11.711000  
489.000000	12.384000  
489.500000	13.544000  
490.000000	13.525000  
490.500000	14.988000  
491.000000	16.744000  
491.500000	17.704000  
492.000000	19.418000  
492.500000	22.165000  
493.000000	25.093000  
493.500000	30.244000  
494.000000	26.683000  
494.500000	31.020000  
495.000000	35.002000  
495.500000	37.309000  
496.000000	41.034000  
496.500000	47.882000  
497.000000	51.931000  
497.500000	57.956000  
498.000000	58.578000  
498.500000	69.531000  
499.000000	74.208000  
499.500000	75.569999  
500.000000	85.986000  
500.500000	95.022000  
501.000000	100.219000 
501.500000	108.196000 
502.000000	120.031000 
502.500000	128.505000 
503.000000	135.140000 
503.500000	145.038000 
504.000000	160.709000 
504.500000	166.321000 
505.000000	178.972000 
505.500000	197.194000 
506.000000	211.869000 
506.500000	219.269000 
507.000000	227.423000 
507.500000	241.388000 
508.000000	251.007000 
508.500000	277.563000 
509.000000	286.340000 
509.500000	295.419000 
510.000000	315.930000 
510.500000	321.624000 
511.000000	332.287000 
511.500000	339.801000 
512.000000	366.156000 
512.500000	369.788000 
513.000000	378.249000 
513.500000	395.847000 
514.000000	399.863000 
514.500000	403.543000 
515.000000	410.079000 
515.500000	425.410000 
516.000000	428.975000 
516.500000	425.814000 
517.000000	434.223000 
517.500000	443.866000 
518.000000	442.554000 
518.500000	448.510000 
519.000000	447.602000 
519.500000	445.883000 
520.000000	449.443000 
520.500000	445.073000 
521.000000	444.191000 
521.500000	446.505000 
522.000000	440.200000 
522.500000	429.808000 
523.000000	428.187000 
523.500000	429.342000 
524.000000	422.144000 
524.500000	421.328000 
525.000000	409.058000 
525.500000	409.964000 
526.000000	401.588000 
526.500000	394.349000 
527.000000	385.441000 
527.500000	384.527000 
528.000000	389.222000 
528.500000	373.738000 
529.000000	361.234000 
529.500000	357.104000 
530.000000	346.553000 
530.500000	348.221000 
531.000000	346.154000 
531.500000	322.627000 
532.000000	330.932000 
532.500000	328.466000 
533.000000	314.356000 
533.500000	316.785000 
534.000000	307.514000 
534.500000	308.217000 
535.000000	302.673000 
535.500000	289.165000 
536.000000	290.052000 
536.500000	280.335000 
537.000000	282.116000 
537.500000	271.834000 
538.000000	269.991000 
538.500000	264.020000 
539.000000	261.986000 
539.500000	261.955000 
540.000000	253.233000 
540.500000	250.484000 
541.000000	247.046000 
541.500000	237.459000 
542.000000	240.097000 
542.500000	236.762000 
543.000000	227.854000 
543.500000	220.417000 
544.000000	223.925000 
544.500000	222.015000 
545.000000	224.656000 
545.500000	215.559000 
546.000000	207.336000 
546.500000	205.778000 
547.000000	208.959000 
547.500000	210.859000 
548.000000	200.466000 
548.500000	198.843000 
549.000000	194.021000 
549.500000	190.704000 
550.000000	185.306000 
550.500000	182.123000 
551.000000	180.005000 
551.500000	183.888000 
552.000000	179.599000 
552.500000	170.173000 
553.000000	165.554000 
553.500000	162.347000 
554.000000	162.304000 
554.500000	159.705000 
555.000000	163.142000 
555.500000	152.578000 
556.000000	153.882000 
556.500000	154.200000 
557.000000	152.421000 
557.500000	149.846000 
558.000000	142.483000 
558.500000	140.154000 
559.000000	137.750000 
559.500000	130.818000 
560.000000	133.339000 
560.500000	129.753000 
561.000000	126.508000 
561.500000	124.723000 
562.000000	127.811000 
562.500000	121.036000 
563.000000	119.127000 
563.500000	117.434000 
564.000000	112.087000 
564.500000	114.619000 
565.000000	111.920000 
565.500000	107.809000 
566.000000	100.576000 
566.500000	100.780000 
567.000000	98.605999  
567.500000	101.462000 
568.000000	97.880000  
568.500000	94.944999  
569.000000	88.947000  
569.500000	93.071000  
570.000000	88.468999  
570.500000	88.239000  
571.000000	88.102000  
571.500000	85.015000  
572.000000	76.177000  
572.500000	80.352999  
573.000000	76.215999  
573.500000	71.645000  
574.000000	72.581999  
574.500000	70.762000  
575.000000	68.965000  
575.500000	68.470000  
576.000000	67.488000  
576.500000	64.069000  
577.000000	64.492999  
577.500000	64.370000  
578.000000	59.685000  
578.500000	57.381000  
579.000000	59.981000  
579.500000	55.577000  
580.000000	53.336000  
580.500000	52.130000  
581.000000	56.397000  
581.500000	50.935000  
582.000000	49.297000  
582.500000	47.004000  
583.000000	49.786000  
583.500000	46.953000  
584.000000	46.957000  
584.500000	44.968000  
585.000000	43.535000  
585.500000	45.566000  
586.000000	43.744000  
586.500000	43.040000  
587.000000	41.998000  
587.500000	40.629000  
588.000000	41.177000  
588.500000	39.876000  
589.000000	41.517000  
589.500000	38.147000  
590.000000	37.473000  
590.500000	36.133000  
591.000000	37.815000  
591.500000	36.774000  
592.000000	35.276000  
592.500000	32.384000  
593.000000	34.282000  
593.500000	31.602000  
594.000000	33.116000  
594.500000	30.388000  
595.000000	31.716000  
595.500000	30.360000  
596.000000	31.365000  
596.500000	28.701000  
597.000000	26.665000  
597.500000	30.046000  
598.000000	27.410000  
598.500000	28.698000  
599.000000	27.950000  
599.500000	26.487000  
600.000000	25.419000  
600.500000	26.309000  
601.000000	24.552000  
601.500000	23.163000  
602.000000	22.908000  
602.500000	24.749000  
603.000000	22.123000  
603.500000	22.129000  
604.000000	21.915000  
604.500000	21.308000  
605.000000	21.522000  
605.500000	22.055000  
606.000000	19.986000  
606.500000	20.456000  
607.000000	19.986000  
607.500000	21.692000  
608.000000	17.484000  
608.500000	17.839000  
609.000000	19.284000  
609.500000	16.922000  
610.000000	18.919000  
610.500000	17.564000  
611.000000	17.050000  
611.500000	18.530000  
612.000000	17.305000  
612.500000	16.106000  
613.000000	16.288000  
613.500000	15.395000  
614.000000	16.405000  
614.500000	15.996000  
615.000000	13.995000  
615.500000	13.138000  
616.000000	14.846000  
616.500000	14.604000  
617.000000	13.447000  
617.500000	13.149000  
618.000000	13.985000  
618.500000	12.958000  
619.000000	13.223000  
619.500000	12.080000  
620.000000	12.929000  
620.500000	12.417000  
621.000000	10.763000  
621.500000	10.954000  
622.000000	11.299000  
622.500000	11.090000  
623.000000	9.705000   
623.500000	12.033000  
624.000000	10.349000  
624.500000	11.440000  
625.000000	10.091000  
625.500000	10.693000  
626.000000	10.019000  
626.500000	9.506000   
627.000000	9.941000   
627.500000	7.678000   
628.000000	8.473000   
628.500000	8.564000   
629.000000	8.070000   
629.500000	8.916000   
630.000000	8.526000   
630.500000	7.767000   
631.000000	7.255000   
631.500000	7.826000   
632.000000	7.444000   
632.500000	6.266000   
633.000000	6.860000   
633.500000	6.486000   
634.000000	6.547000   
634.500000	6.430000   
635.000000	6.555000   
635.500000	5.833000   
636.000000	6.396000   
636.500000	6.211000   
637.000000	5.471000   
637.500000	5.732000   
638.000000	5.217000   
638.500000	5.511000   
639.000000	5.391000   
639.500000	5.130000   
640.000000	4.742000   
640.500000	4.714000   
641.000000	4.456000   
641.500000	5.635000   
642.000000	4.609000   
642.500000	4.451000   
643.000000	4.922000   
643.500000	4.952000   
644.000000	4.152000   
644.500000	4.289000   
645.000000	3.732000   
645.500000	4.050000   
646.000000	3.486000   
646.500000	3.578000   
647.000000	3.632000   
647.500000	4.148000   
648.000000	3.649000   
648.500000	4.093000   
649.000000	4.246000   
649.500000	3.999000   
650.000000	3.245000   
650.500000	3.796000   
651.000000	3.561000   
651.500000	4.150000   
652.000000	3.268000   
652.500000	3.470000   
653.000000	3.172000   
653.500000	2.851000   
654.000000	3.228000   
654.500000	3.341000   
655.000000	2.983000   
655.500000	2.753000   
656.000000	2.997000   
656.500000	2.503000   
657.000000	2.854000   
657.500000	2.826000   
658.000000	2.352000   
658.500000	2.541000   
659.000000	2.594000   
659.500000	1.987000   
660.000000	2.425000   
660.500000	1.773000   
661.000000	1.801000   
661.500000	2.022000   
662.000000	2.677000   
662.500000	1.744000   
663.000000	2.020000   
663.500000	1.649000   
664.000000	2.225000   
664.500000	2.177000   
665.000000	1.612000   
665.500000	2.340000   
666.000000	2.701000   
666.500000	2.631000   
667.000000	1.431000   
667.500000	1.401000   
668.000000	1.565000   
668.500000	1.711000   
669.000000	2.003000   
669.500000	1.457000   
670.000000	2.043000   
670.500000	1.694000   
671.000000	1.821000   
671.500000	1.879000   
672.000000	1.731000   
672.500000	1.803000   
673.000000	1.719000   
673.500000	1.346000   
674.000000	1.638000   
674.500000	1.335000   
675.000000	1.245000   
675.500000	1.445000   
676.000000	1.753000   
676.500000	1.721000   
677.000000	1.347000   
677.500000	1.239000   
678.000000	1.308000   
678.500000	1.612000   
679.000000	1.547000   
679.500000	1.429000   
680.000000	1.514000   
680.500000	1.443000   
681.000000	1.165000   
681.500000	1.228000   
682.000000	1.099000   
682.500000	1.256000   
683.000000	1.422000   
683.500000	1.264000   
684.000000	1.031000   
684.500000	1.128000   
685.000000	1.178000   
685.500000	0.863000   
686.000000	0.870000   
686.500000	1.231000   
687.000000	1.323000   
687.500000	0.895000   
688.000000	0.905000   
688.500000	1.271000   
689.000000	1.371000   
689.500000	0.837000   
690.000000	1.369000   
690.500000	0.885000   
691.000000	1.356000   
691.500000	0.854000   
692.000000	1.100000   
692.500000	0.917000   
693.000000	0.956000   
693.500000	0.920000   
694.000000	0.931000   
694.500000	0.881000   
695.000000	0.558000   
695.500000	0.812999   
696.000000	0.817999   
696.500000	0.805000   
697.000000	0.903000   
697.500000	1.020000   
698.000000	0.399000   
698.500000	0.370000   
699.000000	0.839000   
699.500000	0.815999   
700.000000	0.450000   
700.500000	0.085000   

