PE FL                   SPECTRUM    ASCII       PEDS        1.60        
  -1
DMB017.SP
23/03/01
16:52:03.00
23/03/01
16:53:05.00


700.500000
1









LS50-B
415.00
2.50
2.50
SCAN
1
20
100
100
0
400
0
1
0
1
7
ON
700 415 
1 0 0
#HDR
-1
-1
#GR
NM
INT 
0.00002384185791015625
0.0
380.000000
0.500000
642
8
519.344000
0.055000
#DATA
380.000000	0.067000   
380.500000	0.182000   
381.000000	0.209000   
381.500000	0.055000   
382.000000	0.111000   
382.500000	0.401000   
383.000000	0.189000   
383.500000	0.329000   
384.000000	0.488000   
384.500000	0.421000   
385.000000	0.283000   
385.500000	0.233000   
386.000000	0.239000   
386.500000	0.066000   
387.000000	0.115000   
387.500000	0.327000   
388.000000	0.359000   
388.500000	0.182000   
389.000000	0.250000   
389.500000	0.372000   
390.000000	0.277000   
390.500000	0.299000   
391.000000	0.155000   
391.500000	0.250000   
392.000000	0.295000   
392.500000	0.257000   
393.000000	0.149000   
393.500000	0.439000   
394.000000	0.413000   
394.500000	0.367000   
395.000000	0.365000   
395.500000	0.135000   
396.000000	0.070000   
396.500000	0.179000   
397.000000	0.248000   
397.500000	0.381000   
398.000000	0.112000   
398.500000	0.309000   
399.000000	0.501000   
399.500000	0.223000   
400.000000	0.288000   
400.500000	0.277000   
401.000000	0.511000   
401.500000	0.486000   
402.000000	0.545000   
402.500000	0.306000   
403.000000	0.459000   
403.500000	0.067000   
404.000000	0.212000   
404.500000	0.290000   
405.000000	0.614000   
405.500000	0.577000   
406.000000	0.492000   
406.500000	0.543000   
407.000000	0.607000   
407.500000	0.674000   
408.000000	0.720000   
408.500000	1.220000   
409.000000	2.317000   
409.500000	3.311000   
410.000000	9.404000   
410.500000	17.232000  
411.000000	29.333000  
411.500000	50.080000  
412.000000	72.294000  
412.500000	96.436000  
413.000000	123.351000 
413.500000	141.042000 
414.000000	154.240000 
414.500000	149.979000 
415.000000	131.013000 
415.500000	110.630000 
416.000000	80.947999  
416.500000	52.530000  
417.000000	34.839000  
417.500000	17.958000  
418.000000	9.653000   
418.500000	4.767000   
419.000000	2.376000   
419.500000	1.327000   
420.000000	0.973000   
420.500000	0.918000   
421.000000	0.809000   
421.500000	0.417000   
422.000000	0.714000   
422.500000	0.622000   
423.000000	0.725000   
423.500000	0.729000   
424.000000	0.602000   
424.500000	0.564999   
425.000000	0.540000   
425.500000	0.324000   
426.000000	0.683000   
426.500000	0.712000   
427.000000	0.615000   
427.500000	0.597000   
428.000000	0.366000   
428.500000	0.403000   
429.000000	0.354000   
429.500000	0.885000   
430.000000	0.626000   
430.500000	0.531000   
431.000000	0.612000   
431.500000	0.547000   
432.000000	0.450000   
432.500000	0.654000   
433.000000	0.532000   
433.500000	1.083000   
434.000000	0.498000   
434.500000	0.736000   
435.000000	0.858000   
435.500000	1.281000   
436.000000	0.778000   
436.500000	1.083000   
437.000000	0.913000   
437.500000	0.876000   
438.000000	0.814999   
438.500000	0.998000   
439.000000	1.086000   
439.500000	0.675000   
440.000000	0.912000   
440.500000	1.209000   
441.000000	1.545000   
441.500000	1.224000   
442.000000	1.278000   
442.500000	1.350000   
443.000000	1.234000   
443.500000	1.501000   
444.000000	1.469000   
444.500000	1.369000   
445.000000	1.306000   
445.500000	1.270000   
446.000000	1.391000   
446.500000	1.369000   
447.000000	1.488000   
447.500000	1.434000   
448.000000	1.774000   
448.500000	1.914000   
449.000000	1.613000   
449.500000	2.120000   
450.000000	1.361000   
450.500000	1.489000   
451.000000	1.642000   
451.500000	1.156000   
452.000000	1.851000   
452.500000	2.072000   
453.000000	1.737000   
453.500000	2.705000   
454.000000	2.002000   
454.500000	1.577000   
455.000000	1.423000   
455.500000	2.196000   
456.000000	1.702000   
456.500000	2.129000   
457.000000	2.486000   
457.500000	2.106000   
458.000000	2.207000   
458.500000	1.779000   
459.000000	2.093000   
459.500000	1.793000   
460.000000	2.326000   
460.500000	2.098000   
461.000000	2.220000   
461.500000	1.682000   
462.000000	2.220000   
462.500000	2.384000   
463.000000	2.479000   
463.500000	2.762000   
464.000000	2.223000   
464.500000	2.202000   
465.000000	1.941000   
465.500000	2.383000   
466.000000	3.268000   
466.500000	2.719000   
467.000000	2.276000   
467.500000	2.251000   
468.000000	2.328000   
468.500000	2.107000   
469.000000	2.043000   
469.500000	1.840000   
470.000000	2.309000   
470.500000	2.312000   
471.000000	3.012000   
471.500000	2.756000   
472.000000	2.728000   
472.500000	2.783000   
473.000000	2.784000   
473.500000	2.472000   
474.000000	3.311000   
474.500000	3.095000   
475.000000	3.480000   
475.500000	2.589000   
476.000000	3.157000   
476.500000	2.957000   
477.000000	3.401000   
477.500000	3.326000   
478.000000	4.082000   
478.500000	3.701000   
479.000000	3.928000   
479.500000	3.888000   
480.000000	4.256000   
480.500000	4.817000   
481.000000	4.774000   
481.500000	5.223000   
482.000000	5.443000   
482.500000	5.476000   
483.000000	6.214000   
483.500000	8.081000   
484.000000	6.972000   
484.500000	7.284000   
485.000000	7.894000   
485.500000	7.992000   
486.000000	9.487000   
486.500000	9.462999   
487.000000	10.222000  
487.500000	10.887000  
488.000000	13.500000  
488.500000	13.989000  
489.000000	14.361000  
489.500000	17.606000  
490.000000	17.482000  
490.500000	19.177000  
491.000000	22.003000  
491.500000	21.728000  
492.000000	26.149000  
492.500000	27.653000  
493.000000	28.769000  
493.500000	31.413000  
494.000000	37.324000  
494.500000	40.392000  
495.000000	40.676000  
495.500000	47.896000  
496.000000	49.755000  
496.500000	55.351000  
497.000000	62.345000  
497.500000	68.129000  
498.000000	70.956000  
498.500000	79.932000  
499.000000	89.489000  
499.500000	95.059000  
500.000000	102.797000 
500.500000	112.806000 
501.000000	119.940000 
501.500000	134.553000 
502.000000	145.213000 
502.500000	152.638000 
503.000000	167.783000 
503.500000	173.852000 
504.000000	186.066000 
504.500000	200.637000 
505.000000	215.721000 
505.500000	232.946000 
506.000000	241.561000 
506.500000	256.889000 
507.000000	272.669000 
507.500000	292.270000 
508.000000	298.488000 
508.500000	310.683000 
509.000000	328.893000 
509.500000	337.866000 
510.000000	367.024000 
510.500000	381.457000 
511.000000	403.103000 
511.500000	410.289000 
512.000000	418.135000 
512.500000	437.096000 
513.000000	459.997000 
513.500000	449.231000 
514.000000	457.195000 
514.500000	466.570000 
515.000000	476.909000 
515.500000	482.616000 
516.000000	501.554000 
516.500000	508.968000 
517.000000	506.075000 
517.500000	511.773000 
518.000000	508.725000 
518.500000	511.922000 
519.000000	514.772000 
519.500000	511.631000 
520.000000	516.116000 
520.500000	502.798000 
521.000000	519.344000 
521.500000	510.130000 
522.000000	493.406000 
522.500000	497.942000 
523.000000	496.548000 
523.500000	475.208000 
524.000000	475.066000 
524.500000	480.357000 
525.000000	472.403000 
525.500000	456.586000 
526.000000	460.732000 
526.500000	448.478000 
527.000000	451.674000 
527.500000	430.250000 
528.000000	436.625000 
528.500000	420.037000 
529.000000	416.153000 
529.500000	404.992000 
530.000000	413.376000 
530.500000	401.242000 
531.000000	388.477000 
531.500000	381.258000 
532.000000	377.586000 
532.500000	362.410000 
533.000000	360.621000 
533.500000	358.711000 
534.000000	351.080000 
534.500000	347.538000 
535.000000	343.938000 
535.500000	343.483000 
536.000000	330.600000 
536.500000	319.187000 
537.000000	316.502000 
537.500000	315.367000 
538.000000	299.687000 
538.500000	298.155000 
539.000000	291.381000 
539.500000	288.694000 
540.000000	281.700000 
540.500000	281.200000 
541.000000	277.187000 
541.500000	265.050000 
542.000000	270.099000 
542.500000	266.640000 
543.000000	255.605000 
543.500000	251.440000 
544.000000	253.500000 
544.500000	250.142000 
545.000000	246.286000 
545.500000	237.379000 
546.000000	234.404000 
546.500000	233.952000 
547.000000	235.718000 
547.500000	227.678000 
548.000000	225.617000 
548.500000	215.178000 
549.000000	215.108000 
549.500000	209.735000 
550.000000	210.027000 
550.500000	204.360000 
551.000000	205.249000 
551.500000	192.575000 
552.000000	193.747000 
552.500000	193.510000 
553.000000	191.086000 
553.500000	191.953000 
554.000000	189.258000 
554.500000	182.195000 
555.000000	175.475000 
555.500000	167.900000 
556.000000	170.633000 
556.500000	163.854000 
557.000000	171.775000 
557.500000	163.756000 
558.000000	161.979000 
558.500000	156.945000 
559.000000	161.598000 
559.500000	148.770000 
560.000000	152.062000 
560.500000	148.076000 
561.000000	140.599000 
561.500000	133.878000 
562.000000	136.478000 
562.500000	133.862000 
563.000000	129.664000 
563.500000	124.286000 
564.000000	126.169000 
564.500000	120.589000 
565.000000	120.238000 
565.500000	121.269000 
566.000000	112.566000 
566.500000	110.896000 
567.000000	112.032000 
567.500000	108.850000 
568.000000	106.465000 
568.500000	104.314000 
569.000000	104.792000 
569.500000	97.830000  
570.000000	98.505000  
570.500000	94.511000  
571.000000	90.010000  
571.500000	96.031000  
572.000000	88.652000  
572.500000	87.277000  
573.000000	84.367000  
573.500000	83.614999  
574.000000	79.209000  
574.500000	80.496000  
575.000000	74.224000  
575.500000	71.715000  
576.000000	72.584000  
576.500000	73.706999  
577.000000	71.308000  
577.500000	70.305000  
578.000000	66.917000  
578.500000	66.407000  
579.000000	64.239000  
579.500000	59.591000  
580.000000	62.940000  
580.500000	57.892000  
581.000000	59.483000  
581.500000	58.607000  
582.000000	57.641000  
582.500000	55.669000  
583.000000	53.144000  
583.500000	51.520000  
584.000000	49.279000  
584.500000	50.042000  
585.000000	50.423000  
585.500000	50.157000  
586.000000	46.909000  
586.500000	46.305000  
587.000000	43.776000  
587.500000	45.517000  
588.000000	42.495000  
588.500000	42.527000  
589.000000	41.545000  
589.500000	40.624000  
590.000000	41.821000  
590.500000	39.408000  
591.000000	38.282000  
591.500000	37.225000  
592.000000	34.901000  
592.500000	39.570000  
593.000000	37.388000  
593.500000	34.199000  
594.000000	33.793000  
594.500000	34.103000  
595.000000	33.125000  
595.500000	31.110000  
596.000000	32.287000  
596.500000	30.508000  
597.000000	30.189000  
597.500000	30.351000  
598.000000	28.023000  
598.500000	29.051000  
599.000000	27.858000  
599.500000	25.592000  
600.000000	27.064000  
600.500000	28.047000  
601.000000	26.725000  
601.500000	26.796000  
602.000000	24.619000  
602.500000	25.709000  
603.000000	25.098000  
603.500000	23.320000  
604.000000	23.021000  
604.500000	24.567000  
605.000000	23.669000  
605.500000	22.248000  
606.000000	21.932000  
606.500000	22.661000  
607.000000	23.298000  
607.500000	20.398000  
608.000000	20.418000  
608.500000	20.983000  
609.000000	20.620000  
609.500000	20.334000  
610.000000	19.073000  
610.500000	20.413000  
611.000000	18.728000  
611.500000	17.442000  
612.000000	17.886000  
612.500000	16.976000  
613.000000	16.541000  
613.500000	16.921000  
614.000000	17.197000  
614.500000	15.126000  
615.000000	16.496000  
615.500000	15.482000  
616.000000	15.129000  
616.500000	15.315000  
617.000000	15.053000  
617.500000	14.114000  
618.000000	13.656000  
618.500000	14.619000  
619.000000	13.852000  
619.500000	14.046000  
620.000000	14.535000  
620.500000	12.920000  
621.000000	13.797000  
621.500000	11.438000  
622.000000	10.890000  
622.500000	11.158000  
623.000000	11.114000  
623.500000	11.002000  
624.000000	11.630000  
624.500000	11.807000  
625.000000	10.097000  
625.500000	8.752000   
626.000000	10.174000  
626.500000	9.664000   
627.000000	8.615000   
627.500000	8.500000   
628.000000	9.443000   
628.500000	9.057000   
629.000000	8.590000   
629.500000	8.542999   
630.000000	9.173999   
630.500000	8.965999   
631.000000	7.718000   
631.500000	7.229000   
632.000000	8.021000   
632.500000	7.032000   
633.000000	6.815000   
633.500000	6.617000   
634.000000	7.614000   
634.500000	6.639000   
635.000000	6.961000   
635.500000	7.098000   
636.000000	7.314000   
636.500000	6.583000   
637.000000	6.279000   
637.500000	6.056000   
638.000000	6.900000   
638.500000	5.416000   
639.000000	5.508000   
639.500000	4.573000   
640.000000	6.315000   
640.500000	5.640000   
641.000000	5.110000   
641.500000	4.334000   
642.000000	4.999000   
642.500000	4.847000   
643.000000	4.186000   
643.500000	4.005000   
644.000000	5.500000   
644.500000	4.311000   
645.000000	3.669000   
645.500000	4.212000   
646.000000	4.372000   
646.500000	3.260000   
647.000000	4.859000   
647.500000	4.311000   
648.000000	3.954000   
648.500000	4.201000   
649.000000	3.863000   
649.500000	3.671000   
650.000000	3.741000   
650.500000	3.948000   
651.000000	2.771000   
651.500000	3.253000   
652.000000	3.729000   
652.500000	3.102000   
653.000000	2.900000   
653.500000	2.474000   
654.000000	2.847000   
654.500000	2.657000   
655.000000	2.439000   
655.500000	2.686000   
656.000000	3.131000   
656.500000	2.997000   
657.000000	3.013000   
657.500000	3.560000   
658.000000	2.826000   
658.500000	2.463000   
659.000000	2.681000   
659.500000	3.127000   
660.000000	1.987000   
660.500000	2.318000   
661.000000	2.273000   
661.500000	2.167000   
662.000000	2.862000   
662.500000	2.819000   
663.000000	2.687000   
663.500000	2.334000   
664.000000	2.159000   
664.500000	2.236000   
665.000000	2.297000   
665.500000	1.919000   
666.000000	1.928000   
666.500000	2.258000   
667.000000	2.721000   
667.500000	2.120000   
668.000000	2.660000   
668.500000	1.953000   
669.000000	1.729000   
669.500000	1.695000   
670.000000	2.432000   
670.500000	1.858000   
671.000000	1.659000   
671.500000	1.947000   
672.000000	2.153000   
672.500000	1.706000   
673.000000	1.234000   
673.500000	1.807000   
674.000000	1.624000   
674.500000	1.743000   
675.000000	1.788000   
675.500000	1.180000   
676.000000	2.161000   
676.500000	1.836000   
677.000000	1.599000   
677.500000	1.874000   
678.000000	1.413000   
678.500000	1.529000   
679.000000	1.237000   
679.500000	2.043000   
680.000000	1.202000   
680.500000	1.186000   
681.000000	1.119000   
681.500000	1.267000   
682.000000	1.245000   
682.500000	1.752000   
683.000000	1.247000   
683.500000	1.218000   
684.000000	1.508000   
684.500000	1.612000   
685.000000	1.091000   
685.500000	1.395000   
686.000000	0.897000   
686.500000	0.884000   
687.000000	0.782000   
687.500000	0.625000   
688.000000	1.010000   
688.500000	1.050000   
689.000000	1.285000   
689.500000	1.197000   
690.000000	1.334000   
690.500000	1.217000   
691.000000	1.044000   
691.500000	0.558000   
692.000000	0.759000   
692.500000	0.877000   
693.000000	1.025000   
693.500000	1.282000   
694.000000	0.736000   
694.500000	1.109000   
695.000000	1.090000   
695.500000	1.025000   
696.000000	0.671000   
696.500000	0.821000   
697.000000	0.810000   
697.500000	0.592000   
698.000000	0.907000   
698.500000	0.897000   
699.000000	1.010000   
699.500000	0.534000   
700.000000	1.087000   
700.500000	1.639000   

