PE FL                   SPECTRUM    ASCII       PEDS        1.60        
  -1
DMB029.SP
23/03/01
17:25:19.00
23/03/01
17:26:20.00


700.500000
1









LS50-B
415.00
2.50
2.50
SCAN
1
20
100
100
0
400
0
1
0
1
7
ON
700 415 
1 0 0
#HDR
-1
-1
#GR
NM
INT 
0.00002384185791015625
0.0
380.000000
0.500000
642
8
308.905000
-0.055000
#DATA
380.000000	0.001000   
380.500000	0.191000   
381.000000	0.191000   
381.500000	0.159000   
382.000000	0.218000   
382.500000	0.367000   
383.000000	0.200000   
383.500000	0.000000   
384.000000	0.112000   
384.500000	0.146000   
385.000000	0.248000   
385.500000	0.134000   
386.000000	0.172000   
386.500000	0.067000   
387.000000	0.183000   
387.500000	0.000000   
388.000000	0.097000   
388.500000	0.214000   
389.000000	0.174000   
389.500000	0.056000   
390.000000	0.188000   
390.500000	0.355000   
391.000000	0.408000   
391.500000	0.056000   
392.000000	0.190000   
392.500000	0.207000   
393.000000	0.140000   
393.500000	0.230000   
394.000000	0.096000   
394.500000	0.062000   
395.000000	0.085999   
395.500000	0.000000   
396.000000	0.067000   
396.500000	0.107000   
397.000000	0.169000   
397.500000	0.111000   
398.000000	0.130000   
398.500000	0.205000   
399.000000	0.276000   
399.500000	0.235000   
400.000000	0.028000   
400.500000	0.178000   
401.000000	0.283000   
401.500000	0.292000   
402.000000	0.119000   
402.500000	0.090000   
403.000000	0.294000   
403.500000	0.296000   
404.000000	0.320000   
404.500000	0.172000   
405.000000	0.144000   
405.500000	-0.055000  
406.000000	0.099000   
406.500000	0.096000   
407.000000	0.136000   
407.500000	0.376000   
408.000000	0.403000   
408.500000	0.306000   
409.000000	0.706000   
409.500000	1.733000   
410.000000	2.736000   
410.500000	4.631000   
411.000000	7.772000   
411.500000	13.684000  
412.000000	20.086000  
412.500000	26.786000  
413.000000	33.361000  
413.500000	36.801000  
414.000000	39.790000  
414.500000	39.346000  
415.000000	32.273000  
415.500000	26.630000  
416.000000	22.291000  
416.500000	12.706000  
417.000000	8.509000   
417.500000	4.995000   
418.000000	2.622000   
418.500000	1.562000   
419.000000	0.894000   
419.500000	0.382000   
420.000000	0.261000   
420.500000	0.118000   
421.000000	0.260000   
421.500000	0.324000   
422.000000	0.073000   
422.500000	0.298000   
423.000000	0.434000   
423.500000	0.464000   
424.000000	0.263000   
424.500000	0.251000   
425.000000	0.225000   
425.500000	0.226000   
426.000000	0.249000   
426.500000	0.196000   
427.000000	0.135000   
427.500000	0.132000   
428.000000	0.371000   
428.500000	0.431000   
429.000000	0.365000   
429.500000	0.180000   
430.000000	0.465000   
430.500000	0.340000   
431.000000	0.313000   
431.500000	0.189000   
432.000000	0.307000   
432.500000	0.375000   
433.000000	0.498000   
433.500000	0.402000   
434.000000	0.101000   
434.500000	0.358000   
435.000000	0.326000   
435.500000	0.331000   
436.000000	0.556000   
436.500000	0.347000   
437.000000	0.595000   
437.500000	0.590000   
438.000000	0.603000   
438.500000	0.578000   
439.000000	0.415000   
439.500000	0.462000   
440.000000	0.456000   
440.500000	0.543000   
441.000000	0.873000   
441.500000	0.556000   
442.000000	0.622000   
442.500000	0.570000   
443.000000	0.865000   
443.500000	0.897000   
444.000000	0.687000   
444.500000	0.961000   
445.000000	0.927000   
445.500000	0.633000   
446.000000	0.676000   
446.500000	0.997000   
447.000000	0.853000   
447.500000	0.792000   
448.000000	0.474000   
448.500000	0.735000   
449.000000	0.864000   
449.500000	0.996000   
450.000000	1.075000   
450.500000	0.903000   
451.000000	0.968000   
451.500000	1.002000   
452.000000	0.869000   
452.500000	0.932000   
453.000000	0.933000   
453.500000	0.912000   
454.000000	1.068000   
454.500000	1.076000   
455.000000	0.855000   
455.500000	1.397000   
456.000000	1.207000   
456.500000	0.959000   
457.000000	1.148000   
457.500000	1.064000   
458.000000	1.427000   
458.500000	1.251000   
459.000000	1.133000   
459.500000	2.109000   
460.000000	1.191000   
460.500000	1.211000   
461.000000	1.677000   
461.500000	0.918000   
462.000000	1.275000   
462.500000	1.059000   
463.000000	1.352000   
463.500000	1.325000   
464.000000	1.389000   
464.500000	1.474000   
465.000000	1.542000   
465.500000	1.121000   
466.000000	1.487000   
466.500000	1.721000   
467.000000	1.609000   
467.500000	1.032000   
468.000000	1.564000   
468.500000	1.473000   
469.000000	1.644000   
469.500000	1.480000   
470.000000	1.102000   
470.500000	1.042000   
471.000000	1.277000   
471.500000	2.413000   
472.000000	1.644000   
472.500000	1.553000   
473.000000	1.548000   
473.500000	1.086000   
474.000000	1.646000   
474.500000	1.223000   
475.000000	1.545000   
475.500000	1.611000   
476.000000	1.751000   
476.500000	2.200000   
477.000000	1.786000   
477.500000	1.908000   
478.000000	1.919000   
478.500000	2.380000   
479.000000	2.618000   
479.500000	2.205000   
480.000000	1.881000   
480.500000	2.430000   
481.000000	2.316000   
481.500000	2.944000   
482.000000	2.596000   
482.500000	3.007000   
483.000000	3.386000   
483.500000	3.354000   
484.000000	3.008000   
484.500000	3.906000   
485.000000	4.354000   
485.500000	4.941000   
486.000000	5.088000   
486.500000	5.895000   
487.000000	6.333000   
487.500000	6.825000   
488.000000	7.071000   
488.500000	6.997000   
489.000000	7.158000   
489.500000	8.529000   
490.000000	9.336000   
490.500000	10.844000  
491.000000	11.179000  
491.500000	12.122000  
492.000000	13.173000  
492.500000	14.895000  
493.000000	17.089000  
493.500000	18.107000  
494.000000	17.970000  
494.500000	20.407000  
495.000000	22.467000  
495.500000	22.865000  
496.000000	28.011000  
496.500000	29.682000  
497.000000	33.080000  
497.500000	35.552000  
498.000000	37.968000  
498.500000	43.686000  
499.000000	47.602000  
499.500000	52.384000  
500.000000	54.613000  
500.500000	61.587000  
501.000000	66.968999  
501.500000	68.546000  
502.000000	76.950999  
502.500000	84.593999  
503.000000	87.138000  
503.500000	97.032000  
504.000000	107.287000 
504.500000	110.484000 
505.000000	117.020000 
505.500000	131.565000 
506.000000	136.464000 
506.500000	146.499000 
507.000000	156.122000 
507.500000	162.080000 
508.000000	167.964000 
508.500000	178.031000 
509.000000	190.441000 
509.500000	199.304000 
510.000000	205.185000 
510.500000	212.346000 
511.000000	224.420000 
511.500000	233.945000 
512.000000	243.271000 
512.500000	252.268000 
513.000000	253.803000 
513.500000	262.423000 
514.000000	273.282000 
514.500000	280.432000 
515.000000	275.077000 
515.500000	282.081000 
516.000000	290.455000 
516.500000	295.629000 
517.000000	291.723000 
517.500000	306.123000 
518.000000	306.530000 
518.500000	300.564000 
519.000000	304.008000 
519.500000	302.105000 
520.000000	299.096000 
520.500000	302.759000 
521.000000	308.905000 
521.500000	298.993000 
522.000000	299.919000 
522.500000	292.989000 
523.000000	292.758000 
523.500000	283.033000 
524.000000	293.137000 
524.500000	288.879000 
525.000000	279.780000 
525.500000	277.882000 
526.000000	273.372000 
526.500000	276.065000 
527.000000	272.290000 
527.500000	265.232000 
528.000000	255.571000 
528.500000	258.077000 
529.000000	248.965000 
529.500000	255.346000 
530.000000	252.729000 
530.500000	248.506000 
531.000000	236.151000 
531.500000	236.592000 
532.000000	232.829000 
532.500000	227.522000 
533.000000	221.317000 
533.500000	228.027000 
534.000000	221.088000 
534.500000	215.055000 
535.000000	215.368000 
535.500000	207.320000 
536.000000	199.347000 
536.500000	206.162000 
537.000000	196.587000 
537.500000	190.240000 
538.000000	197.286000 
538.500000	189.099000 
539.000000	181.593000 
539.500000	179.429000 
540.000000	178.834000 
540.500000	178.095000 
541.000000	174.651000 
541.500000	182.007000 
542.000000	167.561000 
542.500000	167.403000 
543.000000	163.946000 
543.500000	159.144000 
544.000000	156.590000 
544.500000	156.948000 
545.000000	152.869000 
545.500000	151.939000 
546.000000	149.749000 
546.500000	148.353000 
547.000000	149.535000 
547.500000	147.171000 
548.000000	139.516000 
548.500000	140.911000 
549.000000	140.930000 
549.500000	140.458000 
550.000000	137.851000 
550.500000	131.770000 
551.000000	132.416000 
551.500000	131.642000 
552.000000	126.998000 
552.500000	128.284000 
553.000000	124.956000 
553.500000	123.018000 
554.000000	120.697000 
554.500000	118.995000 
555.000000	116.539000 
555.500000	112.918000 
556.000000	113.388000 
556.500000	111.330000 
557.000000	106.709000 
557.500000	111.935000 
558.000000	106.394000 
558.500000	104.780000 
559.000000	101.289000 
559.500000	100.025000 
560.000000	100.248000 
560.500000	97.340000  
561.000000	100.026000 
561.500000	91.236000  
562.000000	91.453000  
562.500000	90.709999  
563.000000	87.614000  
563.500000	84.813000  
564.000000	88.964000  
564.500000	85.031000  
565.000000	81.129000  
565.500000	79.102999  
566.000000	78.531000  
566.500000	76.534000  
567.000000	75.646000  
567.500000	72.614000  
568.000000	70.412000  
568.500000	70.376000  
569.000000	70.671000  
569.500000	68.436000  
570.000000	67.139000  
570.500000	63.088000  
571.000000	63.905000  
571.500000	61.798000  
572.000000	60.711000  
572.500000	57.084000  
573.000000	58.525000  
573.500000	54.866000  
574.000000	55.217000  
574.500000	53.756000  
575.000000	54.372000  
575.500000	46.404000  
576.000000	52.995000  
576.500000	53.131000  
577.000000	50.221000  
577.500000	47.036000  
578.000000	47.476000  
578.500000	44.868000  
579.000000	42.600000  
579.500000	42.818000  
580.000000	43.462000  
580.500000	42.374000  
581.000000	41.393000  
581.500000	37.450000  
582.000000	36.909000  
582.500000	36.873000  
583.000000	39.576000  
583.500000	35.487000  
584.000000	37.298000  
584.500000	34.769000  
585.000000	33.632000  
585.500000	33.841000  
586.000000	32.304000  
586.500000	32.488000  
587.000000	31.549000  
587.500000	32.380000  
588.000000	32.440000  
588.500000	30.431000  
589.000000	28.503000  
589.500000	26.938000  
590.000000	27.670000  
590.500000	26.516000  
591.000000	26.615000  
591.500000	26.162000  
592.000000	26.119000  
592.500000	26.870000  
593.000000	27.659000  
593.500000	25.395000  
594.000000	25.344000  
594.500000	24.438000  
595.000000	24.409000  
595.500000	23.067000  
596.000000	24.429000  
596.500000	22.020000  
597.000000	22.821000  
597.500000	21.216000  
598.000000	23.251000  
598.500000	22.272000  
599.000000	21.002000  
599.500000	21.458000  
600.000000	18.769000  
600.500000	17.027000  
601.000000	18.933000  
601.500000	18.738000  
602.000000	18.905000  
602.500000	17.877000  
603.000000	16.761000  
603.500000	17.934000  
604.000000	16.339000  
604.500000	16.799000  
605.000000	17.294000  
605.500000	16.641000  
606.000000	14.704000  
606.500000	16.317000  
607.000000	15.018000  
607.500000	15.707000  
608.000000	14.903000  
608.500000	15.687000  
609.000000	15.393000  
609.500000	14.737000  
610.000000	15.607000  
610.500000	13.801000  
611.000000	12.894000  
611.500000	13.291000  
612.000000	12.847000  
612.500000	13.985000  
613.000000	13.778000  
613.500000	13.479000  
614.000000	12.258000  
614.500000	12.423000  
615.000000	11.417000  
615.500000	11.650000  
616.000000	11.232000  
616.500000	12.560000  
617.000000	12.126000  
617.500000	10.695000  
618.000000	10.704000  
618.500000	10.487000  
619.000000	10.633000  
619.500000	9.654999   
620.000000	9.007000   
620.500000	9.715999   
621.000000	9.082000   
621.500000	10.694000  
622.000000	9.641000   
622.500000	9.071999   
623.000000	8.679000   
623.500000	8.343000   
624.000000	7.872000   
624.500000	8.550000   
625.000000	7.662000   
625.500000	7.020000   
626.000000	6.891000   
626.500000	7.857000   
627.000000	6.935000   
627.500000	8.657999   
628.000000	6.764000   
628.500000	7.427000   
629.000000	6.587000   
629.500000	6.346000   
630.000000	6.529000   
630.500000	6.292000   
631.000000	6.695000   
631.500000	5.761000   
632.000000	6.183000   
632.500000	5.973000   
633.000000	6.635000   
633.500000	6.098000   
634.000000	5.556000   
634.500000	5.200000   
635.000000	5.256000   
635.500000	5.006000   
636.000000	5.119000   
636.500000	4.497000   
637.000000	5.174000   
637.500000	4.495000   
638.000000	4.518000   
638.500000	4.348000   
639.000000	4.908000   
639.500000	3.679000   
640.000000	4.082000   
640.500000	3.754000   
641.000000	4.263000   
641.500000	4.383000   
642.000000	3.863000   
642.500000	3.695000   
643.000000	3.491000   
643.500000	3.785000   
644.000000	3.964000   
644.500000	3.415000   
645.000000	3.544000   
645.500000	2.726000   
646.000000	3.540000   
646.500000	3.336000   
647.000000	3.349000   
647.500000	2.891000   
648.000000	3.205000   
648.500000	3.254000   
649.000000	3.054000   
649.500000	2.620000   
650.000000	2.602000   
650.500000	3.435000   
651.000000	3.358000   
651.500000	3.048000   
652.000000	2.697000   
652.500000	3.488000   
653.000000	3.153000   
653.500000	2.799000   
654.000000	2.062000   
654.500000	2.911000   
655.000000	3.375000   
655.500000	1.888000   
656.000000	1.948000   
656.500000	2.603000   
657.000000	2.611000   
657.500000	1.762000   
658.000000	2.011000   
658.500000	2.037000   
659.000000	2.177000   
659.500000	2.697000   
660.000000	1.942000   
660.500000	1.547000   
661.000000	1.513000   
661.500000	1.089000   
662.000000	1.520000   
662.500000	1.878000   
663.000000	2.427000   
663.500000	1.566000   
664.000000	1.449000   
664.500000	1.388000   
665.000000	1.067000   
665.500000	1.146000   
666.000000	2.085000   
666.500000	1.714000   
667.000000	1.736000   
667.500000	1.799000   
668.000000	1.472000   
668.500000	1.546000   
669.000000	1.756000   
669.500000	1.350000   
670.000000	1.648000   
670.500000	1.409000   
671.000000	1.780000   
671.500000	1.332000   
672.000000	1.443000   
672.500000	1.905000   
673.000000	1.653000   
673.500000	1.706000   
674.000000	1.224000   
674.500000	1.134000   
675.000000	1.538000   
675.500000	1.318000   
676.000000	1.404000   
676.500000	0.907000   
677.000000	0.919000   
677.500000	1.770000   
678.000000	0.910000   
678.500000	0.884000   
679.000000	1.109000   
679.500000	0.961000   
680.000000	1.160000   
680.500000	1.058000   
681.000000	1.717000   
681.500000	0.889000   
682.000000	0.911000   
682.500000	1.260000   
683.000000	0.941999   
683.500000	1.014000   
684.000000	0.983000   
684.500000	0.864000   
685.000000	1.089000   
685.500000	0.812999   
686.000000	1.173000   
686.500000	1.256000   
687.000000	0.929000   
687.500000	1.178000   
688.000000	0.911000   
688.500000	0.971000   
689.000000	0.976000   
689.500000	0.746000   
690.000000	0.897000   
690.500000	0.900000   
691.000000	1.217000   
691.500000	0.622000   
692.000000	1.040000   
692.500000	0.895000   
693.000000	0.869000   
693.500000	0.688999   
694.000000	0.791000   
694.500000	1.143000   
695.000000	0.748000   
695.500000	0.835000   
696.000000	0.445000   
696.500000	0.810000   
697.000000	0.655000   
697.500000	0.380000   
698.000000	0.555000   
698.500000	0.538000   
699.000000	0.702000   
699.500000	0.788000   
700.000000	0.667000   
700.500000	0.547000   

