PE FL                   SPECTRUM    ASCII       PEDS        1.60        
  -1
DMB027.SP
23/03/01
17:18:20.00
23/03/01
17:19:21.00


700.500000
1









LS50-B
415.00
2.50
2.50
SCAN
1
20
100
100
0
400
0
1
0
1
7
ON
700 415 
1 0 0
#HDR
-1
-1
#GR
NM
INT 
0.00002384185791015625
0.0
380.000000
0.500000
642
8
359.293000
-0.112000
#DATA
380.000000	0.415000   
380.500000	0.210000   
381.000000	0.046000   
381.500000	0.178000   
382.000000	0.053000   
382.500000	-0.027000  
383.000000	0.219000   
383.500000	0.287000   
384.000000	0.098000   
384.500000	0.243000   
385.000000	0.148000   
385.500000	0.145000   
386.000000	0.201000   
386.500000	0.180000   
387.000000	0.271000   
387.500000	-0.112000  
388.000000	0.116000   
388.500000	0.130000   
389.000000	0.303000   
389.500000	0.133000   
390.000000	0.078000   
390.500000	0.225000   
391.000000	0.076000   
391.500000	0.370000   
392.000000	0.477000   
392.500000	0.324000   
393.000000	0.173000   
393.500000	0.100000   
394.000000	0.282000   
394.500000	0.314000   
395.000000	0.237000   
395.500000	0.113000   
396.000000	0.246000   
396.500000	0.273000   
397.000000	0.242000   
397.500000	0.384000   
398.000000	0.147000   
398.500000	0.117000   
399.000000	0.183000   
399.500000	0.372000   
400.000000	0.167000   
400.500000	0.157000   
401.000000	0.127000   
401.500000	0.179000   
402.000000	0.195000   
402.500000	0.372000   
403.000000	0.324000   
403.500000	0.054000   
404.000000	0.185000   
404.500000	0.278000   
405.000000	0.055000   
405.500000	0.242000   
406.000000	0.089000   
406.500000	0.437000   
407.000000	0.505000   
407.500000	0.556000   
408.000000	0.497000   
408.500000	0.840000   
409.000000	0.918000   
409.500000	1.854000   
410.000000	3.619000   
410.500000	5.770000   
411.000000	11.345000  
411.500000	16.376000  
412.000000	26.104000  
412.500000	34.816000  
413.000000	43.610000  
413.500000	50.671000  
414.000000	55.635000  
414.500000	51.711000  
415.000000	45.219000  
415.500000	35.378000  
416.000000	26.818000  
416.500000	17.004000  
417.000000	10.643000  
417.500000	5.714000   
418.000000	3.666000   
418.500000	1.939000   
419.000000	1.289000   
419.500000	0.670000   
420.000000	0.592000   
420.500000	0.611000   
421.000000	0.516000   
421.500000	0.197000   
422.000000	0.572000   
422.500000	0.405000   
423.000000	0.455000   
423.500000	0.234000   
424.000000	0.037000   
424.500000	0.298000   
425.000000	0.346000   
425.500000	0.370000   
426.000000	0.167000   
426.500000	0.189000   
427.000000	0.260000   
427.500000	0.512000   
428.000000	0.232000   
428.500000	0.473000   
429.000000	0.594000   
429.500000	0.641000   
430.000000	0.376000   
430.500000	0.446000   
431.000000	0.451000   
431.500000	0.550000   
432.000000	0.243000   
432.500000	0.344000   
433.000000	0.714000   
433.500000	0.249000   
434.000000	0.490000   
434.500000	0.491000   
435.000000	0.540000   
435.500000	0.554000   
436.000000	0.588000   
436.500000	0.687000   
437.000000	0.258000   
437.500000	0.558000   
438.000000	0.751000   
438.500000	0.617000   
439.000000	0.877000   
439.500000	0.963000   
440.000000	0.478000   
440.500000	0.521000   
441.000000	0.834000   
441.500000	0.501000   
442.000000	0.645000   
442.500000	0.502000   
443.000000	0.697000   
443.500000	0.552000   
444.000000	0.756000   
444.500000	0.659000   
445.000000	0.247000   
445.500000	1.157000   
446.000000	0.980000   
446.500000	1.273000   
447.000000	0.737000   
447.500000	1.108000   
448.000000	1.328000   
448.500000	1.331000   
449.000000	1.140000   
449.500000	0.735000   
450.000000	1.342000   
450.500000	0.946000   
451.000000	0.822000   
451.500000	0.914000   
452.000000	1.114000   
452.500000	1.179000   
453.000000	1.097000   
453.500000	1.437000   
454.000000	1.321000   
454.500000	1.323000   
455.000000	1.135000   
455.500000	1.247000   
456.000000	1.394000   
456.500000	1.141000   
457.000000	0.804000   
457.500000	1.848000   
458.000000	1.579000   
458.500000	1.429000   
459.000000	1.501000   
459.500000	1.739000   
460.000000	1.362000   
460.500000	1.511000   
461.000000	1.743000   
461.500000	1.567000   
462.000000	1.162000   
462.500000	1.680000   
463.000000	1.564000   
463.500000	1.728000   
464.000000	1.615000   
464.500000	1.503000   
465.000000	1.709000   
465.500000	1.256000   
466.000000	1.514000   
466.500000	1.749000   
467.000000	1.827000   
467.500000	1.285000   
468.000000	1.800000   
468.500000	1.472000   
469.000000	1.683000   
469.500000	1.501000   
470.000000	2.037000   
470.500000	2.181000   
471.000000	2.440000   
471.500000	2.128000   
472.000000	1.402000   
472.500000	1.878000   
473.000000	2.054000   
473.500000	2.481000   
474.000000	2.078000   
474.500000	1.842000   
475.000000	2.463000   
475.500000	2.056000   
476.000000	2.286000   
476.500000	2.138000   
477.000000	2.420000   
477.500000	2.218000   
478.000000	2.146000   
478.500000	2.883000   
479.000000	2.960000   
479.500000	3.734000   
480.000000	3.059000   
480.500000	3.212000   
481.000000	3.011000   
481.500000	3.232000   
482.000000	3.147000   
482.500000	3.933000   
483.000000	3.650000   
483.500000	3.968000   
484.000000	4.857000   
484.500000	4.741000   
485.000000	4.956000   
485.500000	5.625000   
486.000000	6.949000   
486.500000	6.623000   
487.000000	6.418000   
487.500000	7.433000   
488.000000	7.601000   
488.500000	8.696999   
489.000000	8.968000   
489.500000	10.890000  
490.000000	11.104000  
490.500000	12.491000  
491.000000	14.666000  
491.500000	14.643000  
492.000000	16.534000  
492.500000	17.872000  
493.000000	19.369000  
493.500000	18.214000  
494.000000	21.834000  
494.500000	26.151000  
495.000000	27.967000  
495.500000	27.010000  
496.000000	31.438000  
496.500000	36.410000  
497.000000	37.933000  
497.500000	44.006000  
498.000000	47.130000  
498.500000	54.693000  
499.000000	61.912000  
499.500000	60.550000  
500.000000	67.308000  
500.500000	72.177000  
501.000000	85.057000  
501.500000	87.388000  
502.000000	94.058000  
502.500000	95.673000  
503.000000	109.569000 
503.500000	112.930000 
504.000000	122.845000 
504.500000	129.909000 
505.000000	140.881000 
505.500000	150.813000 
506.000000	162.081000 
506.500000	169.929000 
507.000000	184.266000 
507.500000	195.291000 
508.000000	199.531000 
508.500000	216.823000 
509.000000	225.171000 
509.500000	235.792000 
510.000000	242.067000 
510.500000	252.342000 
511.000000	264.557000 
511.500000	279.745000 
512.000000	292.453000 
512.500000	299.115000 
513.000000	303.069000 
513.500000	308.398000 
514.000000	316.957000 
514.500000	323.330000 
515.000000	332.300000 
515.500000	335.607000 
516.000000	334.414000 
516.500000	336.409000 
517.000000	355.737000 
517.500000	342.076000 
518.000000	348.639000 
518.500000	354.252000 
519.000000	348.438000 
519.500000	359.293000 
520.000000	352.967000 
520.500000	357.524000 
521.000000	358.272000 
521.500000	348.888000 
522.000000	357.800000 
522.500000	350.958000 
523.000000	350.123000 
523.500000	341.697000 
524.000000	338.434000 
524.500000	342.411000 
525.000000	335.091000 
525.500000	334.438000 
526.000000	319.432000 
526.500000	320.699000 
527.000000	316.353000 
527.500000	315.354000 
528.000000	315.839000 
528.500000	308.629000 
529.000000	298.116000 
529.500000	301.561000 
530.000000	286.646000 
530.500000	278.254000 
531.000000	279.552000 
531.500000	273.091000 
532.000000	269.428000 
532.500000	271.670000 
533.000000	265.696000 
533.500000	262.594000 
534.000000	258.078000 
534.500000	253.828000 
535.000000	243.369000 
535.500000	236.211000 
536.000000	232.212000 
536.500000	232.445000 
537.000000	230.007000 
537.500000	225.658000 
538.000000	222.261000 
538.500000	219.054000 
539.000000	213.216000 
539.500000	206.538000 
540.000000	202.888000 
540.500000	206.979000 
541.000000	205.882000 
541.500000	201.173000 
542.000000	189.764000 
542.500000	196.732000 
543.000000	194.066000 
543.500000	190.814000 
544.000000	183.940000 
544.500000	182.890000 
545.000000	180.010000 
545.500000	176.044000 
546.000000	176.561000 
546.500000	172.999000 
547.000000	170.059000 
547.500000	171.276000 
548.000000	166.561000 
548.500000	165.609000 
549.000000	159.191000 
549.500000	158.786000 
550.000000	154.664000 
550.500000	154.052000 
551.000000	155.308000 
551.500000	147.525000 
552.000000	145.241000 
552.500000	144.454000 
553.000000	144.016000 
553.500000	142.181000 
554.000000	134.509000 
554.500000	132.779000 
555.000000	137.888000 
555.500000	134.319000 
556.000000	128.719000 
556.500000	125.808000 
557.000000	122.104000 
557.500000	126.289000 
558.000000	118.177000 
558.500000	117.529000 
559.000000	114.445000 
559.500000	115.176000 
560.000000	108.734000 
560.500000	108.980000 
561.000000	109.228000 
561.500000	106.063000 
562.000000	106.688000 
562.500000	106.973000 
563.000000	100.877000 
563.500000	101.454000 
564.000000	98.440000  
564.500000	95.137000  
565.000000	89.796000  
565.500000	90.063999  
566.000000	93.583000  
566.500000	89.238000  
567.000000	86.771000  
567.500000	87.177000  
568.000000	80.488000  
568.500000	82.843999  
569.000000	77.962999  
569.500000	78.849999  
570.000000	71.663000  
570.500000	73.319000  
571.000000	71.479000  
571.500000	69.305000  
572.000000	70.264000  
572.500000	70.194000  
573.000000	65.264000  
573.500000	65.494000  
574.000000	66.387000  
574.500000	60.304000  
575.000000	58.246000  
575.500000	61.263000  
576.000000	56.198000  
576.500000	57.399000  
577.000000	55.480000  
577.500000	52.758000  
578.000000	51.232000  
578.500000	50.091000  
579.000000	51.391000  
579.500000	49.433000  
580.000000	50.941000  
580.500000	46.849000  
581.000000	44.263000  
581.500000	42.342000  
582.000000	45.262000  
582.500000	44.073000  
583.000000	40.203000  
583.500000	39.143000  
584.000000	41.760000  
584.500000	39.206000  
585.000000	37.529000  
585.500000	38.514000  
586.000000	36.960000  
586.500000	38.035000  
587.000000	36.601000  
587.500000	38.296000  
588.000000	34.550000  
588.500000	35.379000  
589.000000	33.495000  
589.500000	33.206000  
590.000000	34.455000  
590.500000	32.425000  
591.000000	32.319000  
591.500000	30.056000  
592.000000	31.755000  
592.500000	28.457000  
593.000000	29.033000  
593.500000	27.040000  
594.000000	25.963000  
594.500000	27.834000  
595.000000	25.917000  
595.500000	28.022000  
596.000000	25.265000  
596.500000	24.295000  
597.000000	23.352000  
597.500000	27.086000  
598.000000	24.593000  
598.500000	23.482000  
599.000000	25.049000  
599.500000	21.560000  
600.000000	21.488000  
600.500000	21.504000  
601.000000	21.715000  
601.500000	20.578000  
602.000000	19.531000  
602.500000	21.548000  
603.000000	21.474000  
603.500000	22.865000  
604.000000	19.642000  
604.500000	18.105000  
605.000000	17.948000  
605.500000	19.126000  
606.000000	17.724000  
606.500000	17.697000  
607.000000	17.918000  
607.500000	17.051000  
608.000000	14.862000  
608.500000	16.182000  
609.000000	17.171000  
609.500000	15.144000  
610.000000	16.097000  
610.500000	14.735000  
611.000000	16.213000  
611.500000	14.282000  
612.000000	13.445000  
612.500000	14.759000  
613.000000	13.730000  
613.500000	12.804000  
614.000000	14.924000  
614.500000	13.888000  
615.000000	12.950000  
615.500000	14.332000  
616.000000	11.871000  
616.500000	13.110000  
617.000000	13.174000  
617.500000	13.028000  
618.000000	10.967000  
618.500000	12.174000  
619.000000	11.700000  
619.500000	10.262000  
620.000000	9.456000   
620.500000	10.107000  
621.000000	11.170000  
621.500000	10.034000  
622.000000	9.776000   
622.500000	9.667999   
623.000000	9.535000   
623.500000	10.110000  
624.000000	9.398999   
624.500000	9.388000   
625.000000	8.968000   
625.500000	9.336000   
626.000000	8.509000   
626.500000	7.904000   
627.000000	9.054000   
627.500000	7.956000   
628.000000	8.019000   
628.500000	6.979000   
629.000000	6.772000   
629.500000	7.889000   
630.000000	6.174000   
630.500000	6.636000   
631.000000	6.691000   
631.500000	7.570000   
632.000000	6.303000   
632.500000	6.706000   
633.000000	6.012000   
633.500000	5.198000   
634.000000	5.455000   
634.500000	5.284000   
635.000000	5.324000   
635.500000	4.895000   
636.000000	5.388000   
636.500000	5.209000   
637.000000	5.353000   
637.500000	4.525000   
638.000000	4.022000   
638.500000	4.546000   
639.000000	5.459000   
639.500000	4.847000   
640.000000	5.038000   
640.500000	5.134000   
641.000000	4.051000   
641.500000	4.401000   
642.000000	3.609000   
642.500000	3.952000   
643.000000	3.522000   
643.500000	4.736000   
644.000000	3.977000   
644.500000	3.862000   
645.000000	3.579000   
645.500000	4.106000   
646.000000	3.295000   
646.500000	3.559000   
647.000000	3.591000   
647.500000	3.187000   
648.000000	3.955000   
648.500000	3.760000   
649.000000	3.347000   
649.500000	2.875000   
650.000000	3.619000   
650.500000	3.110000   
651.000000	3.025000   
651.500000	3.170000   
652.000000	3.021000   
652.500000	2.986000   
653.000000	2.951000   
653.500000	2.564000   
654.000000	2.795000   
654.500000	2.701000   
655.000000	2.833000   
655.500000	2.633000   
656.000000	3.020000   
656.500000	2.770000   
657.000000	2.337000   
657.500000	2.072000   
658.000000	2.650000   
658.500000	2.417000   
659.000000	2.089000   
659.500000	3.607000   
660.000000	1.899000   
660.500000	1.849000   
661.000000	2.278000   
661.500000	1.825000   
662.000000	2.749000   
662.500000	2.079000   
663.000000	1.426000   
663.500000	2.242000   
664.000000	1.346000   
664.500000	1.406000   
665.000000	1.787000   
665.500000	2.090000   
666.000000	1.619000   
666.500000	1.486000   
667.000000	1.645000   
667.500000	1.407000   
668.000000	1.689000   
668.500000	1.690000   
669.000000	1.616000   
669.500000	0.965000   
670.000000	1.803000   
670.500000	1.276000   
671.000000	1.053000   
671.500000	1.766000   
672.000000	1.453000   
672.500000	1.571000   
673.000000	1.349000   
673.500000	1.204000   
674.000000	1.629000   
674.500000	1.636000   
675.000000	1.934000   
675.500000	1.028000   
676.000000	1.343000   
676.500000	1.428000   
677.000000	1.241000   
677.500000	1.266000   
678.000000	1.296000   
678.500000	1.539000   
679.000000	0.929000   
679.500000	0.981000   
680.000000	1.225000   
680.500000	1.377000   
681.000000	1.269000   
681.500000	1.582000   
682.000000	1.141000   
682.500000	1.034000   
683.000000	0.862000   
683.500000	0.922000   
684.000000	1.056000   
684.500000	1.049000   
685.000000	1.156000   
685.500000	0.993000   
686.000000	0.868000   
686.500000	0.761000   
687.000000	1.101000   
687.500000	1.011000   
688.000000	0.945000   
688.500000	1.060000   
689.000000	1.345000   
689.500000	1.204000   
690.000000	0.932000   
690.500000	0.784000   
691.000000	1.378000   
691.500000	1.144000   
692.000000	0.903000   
692.500000	0.814999   
693.000000	0.896000   
693.500000	0.752000   
694.000000	0.946000   
694.500000	0.967000   
695.000000	0.880000   
695.500000	1.174000   
696.000000	0.816999   
696.500000	0.793000   
697.000000	0.684000   
697.500000	0.862000   
698.000000	0.801000   
698.500000	0.794000   
699.000000	0.810000   
699.500000	1.320000   
700.000000	0.690999   
700.500000	0.063000   

