PE FL                   SPECTRUM    ASCII       PEDS        1.60        
  -1
DMB009.SP
23/03/01
16:25:28.00
23/03/01
16:26:30.00


700.500000
1









LS50-B
415.00
2.50
2.50
SCAN
1
20
100
100
0
400
0
1
0
1
7
ON
700 415 
1 0 0
#HDR
-1
-1
#GR
NM
INT 
0.00002384185791015625
0.0
380.000000
0.500000
642
8
366.076000
-0.132000
#DATA
380.000000	0.444000   
380.500000	0.095000   
381.000000	0.033000   
381.500000	0.132000   
382.000000	0.060000   
382.500000	0.077000   
383.000000	0.203000   
383.500000	0.131000   
384.000000	0.032000   
384.500000	0.011000   
385.000000	0.279000   
385.500000	0.144000   
386.000000	0.101000   
386.500000	-0.039000  
387.000000	0.191000   
387.500000	0.054000   
388.000000	0.110000   
388.500000	0.155000   
389.000000	0.232000   
389.500000	0.174000   
390.000000	0.230000   
390.500000	0.045000   
391.000000	0.236000   
391.500000	0.152000   
392.000000	0.267000   
392.500000	0.083000   
393.000000	0.211000   
393.500000	0.235000   
394.000000	0.203000   
394.500000	0.144000   
395.000000	-0.021000  
395.500000	-0.132000  
396.000000	0.371000   
396.500000	0.055000   
397.000000	0.344000   
397.500000	0.044000   
398.000000	0.245000   
398.500000	0.045000   
399.000000	0.151000   
399.500000	0.420000   
400.000000	0.232000   
400.500000	0.124000   
401.000000	0.324000   
401.500000	0.097000   
402.000000	0.137000   
402.500000	0.236000   
403.000000	0.261000   
403.500000	0.425000   
404.000000	0.243000   
404.500000	0.332000   
405.000000	0.141000   
405.500000	0.287000   
406.000000	0.505000   
406.500000	0.302000   
407.000000	0.509000   
407.500000	0.545000   
408.000000	0.909000   
408.500000	1.274000   
409.000000	1.815000   
409.500000	3.840000   
410.000000	6.999000   
410.500000	12.532000  
411.000000	25.143000  
411.500000	34.919000  
412.000000	52.329000  
412.500000	70.530000  
413.000000	92.998000  
413.500000	106.413000 
414.000000	110.631000 
414.500000	108.163000 
415.000000	92.971999  
415.500000	73.196000  
416.000000	57.736000  
416.500000	33.855000  
417.000000	20.353000  
417.500000	11.672000  
418.000000	6.860000   
418.500000	3.415000   
419.000000	1.956000   
419.500000	0.987000   
420.000000	0.874000   
420.500000	0.744000   
421.000000	0.617000   
421.500000	0.351000   
422.000000	0.172000   
422.500000	0.380000   
423.000000	0.376000   
423.500000	0.155000   
424.000000	0.448000   
424.500000	0.521000   
425.000000	0.329000   
425.500000	0.545000   
426.000000	0.569000   
426.500000	0.399000   
427.000000	0.424000   
427.500000	0.553000   
428.000000	0.343000   
428.500000	0.464000   
429.000000	0.300000   
429.500000	0.759000   
430.000000	0.135000   
430.500000	0.471000   
431.000000	0.552000   
431.500000	0.372000   
432.000000	0.643000   
432.500000	0.506000   
433.000000	0.721000   
433.500000	0.443000   
434.000000	0.591000   
434.500000	0.614000   
435.000000	0.700000   
435.500000	0.909000   
436.000000	0.752000   
436.500000	0.600000   
437.000000	0.647000   
437.500000	0.775000   
438.000000	0.966000   
438.500000	0.764000   
439.000000	0.938999   
439.500000	0.682000   
440.000000	0.680000   
440.500000	0.811000   
441.000000	0.711000   
441.500000	1.120000   
442.000000	0.912000   
442.500000	0.970000   
443.000000	0.976000   
443.500000	0.878000   
444.000000	1.181000   
444.500000	0.878000   
445.000000	0.737000   
445.500000	1.315000   
446.000000	1.177000   
446.500000	1.523000   
447.000000	1.318000   
447.500000	0.901000   
448.000000	0.989000   
448.500000	1.254000   
449.000000	1.679000   
449.500000	1.477000   
450.000000	1.816000   
450.500000	1.717000   
451.000000	1.559000   
451.500000	1.356000   
452.000000	1.157000   
452.500000	1.165000   
453.000000	1.702000   
453.500000	1.378000   
454.000000	1.168000   
454.500000	1.430000   
455.000000	1.873000   
455.500000	2.274000   
456.000000	1.514000   
456.500000	1.434000   
457.000000	1.729000   
457.500000	2.255000   
458.000000	2.057000   
458.500000	2.113000   
459.000000	1.881000   
459.500000	2.584000   
460.000000	2.543000   
460.500000	1.735000   
461.000000	1.898000   
461.500000	2.203000   
462.000000	2.149000   
462.500000	1.778000   
463.000000	2.142000   
463.500000	2.515000   
464.000000	1.972000   
464.500000	2.688000   
465.000000	2.138000   
465.500000	2.667000   
466.000000	2.392000   
466.500000	2.238000   
467.000000	2.218000   
467.500000	2.514000   
468.000000	2.703000   
468.500000	2.887000   
469.000000	2.575000   
469.500000	2.798000   
470.000000	2.347000   
470.500000	2.590000   
471.000000	2.579000   
471.500000	2.761000   
472.000000	2.797000   
472.500000	3.011000   
473.000000	3.390000   
473.500000	2.690000   
474.000000	3.339000   
474.500000	2.809000   
475.000000	3.073000   
475.500000	2.726000   
476.000000	3.373000   
476.500000	3.336000   
477.000000	3.010000   
477.500000	3.338000   
478.000000	5.576000   
478.500000	4.493000   
479.000000	5.184000   
479.500000	4.957000   
480.000000	5.280000   
480.500000	5.350000   
481.000000	4.957000   
481.500000	6.737000   
482.000000	6.024000   
482.500000	7.008000   
483.000000	7.879000   
483.500000	8.685000   
484.000000	9.195000   
484.500000	10.013000  
485.000000	9.661000   
485.500000	12.158000  
486.000000	11.246000  
486.500000	14.465000  
487.000000	14.568000  
487.500000	14.494000  
488.000000	16.892000  
488.500000	18.006000  
489.000000	18.083000  
489.500000	23.331000  
490.000000	23.135000  
490.500000	25.830000  
491.000000	27.492000  
491.500000	28.339000  
492.000000	33.153000  
492.500000	35.481000  
493.000000	38.652000  
493.500000	42.201000  
494.000000	45.577000  
494.500000	49.958000  
495.000000	54.872000  
495.500000	58.150000  
496.000000	62.675000  
496.500000	69.049000  
497.000000	71.543000  
497.500000	79.666000  
498.000000	88.170000  
498.500000	93.905000  
499.000000	100.107000 
499.500000	111.698000 
500.000000	114.605000 
500.500000	124.444000 
501.000000	130.910000 
501.500000	142.957000 
502.000000	156.367000 
502.500000	160.197000 
503.000000	175.796000 
503.500000	180.652000 
504.000000	189.476000 
504.500000	202.401000 
505.000000	206.581000 
505.500000	225.270000 
506.000000	231.073000 
506.500000	241.949000 
507.000000	257.832000 
507.500000	257.026000 
508.000000	274.628000 
508.500000	279.734000 
509.000000	287.786000 
509.500000	296.257000 
510.000000	306.277000 
510.500000	315.345000 
511.000000	319.488000 
511.500000	317.337000 
512.000000	328.035000 
512.500000	335.823000 
513.000000	342.254000 
513.500000	335.417000 
514.000000	356.413000 
514.500000	365.927000 
515.000000	366.076000 
515.500000	348.386000 
516.000000	359.504000 
516.500000	352.415000 
517.000000	348.169000 
517.500000	362.798000 
518.000000	338.107000 
518.500000	349.834000 
519.000000	351.225000 
519.500000	344.457000 
520.000000	340.562000 
520.500000	335.659000 
521.000000	331.423000 
521.500000	312.236000 
522.000000	328.008000 
522.500000	330.358000 
523.000000	318.425000 
523.500000	318.505000 
524.000000	313.700000 
524.500000	306.050000 
525.000000	302.021000 
525.500000	298.547000 
526.000000	288.290000 
526.500000	283.987000 
527.000000	281.859000 
527.500000	279.620000 
528.000000	268.342000 
528.500000	260.340000 
529.000000	260.665000 
529.500000	246.579000 
530.000000	250.735000 
530.500000	245.198000 
531.000000	241.695000 
531.500000	243.992000 
532.000000	232.856000 
532.500000	230.508000 
533.000000	222.588000 
533.500000	227.244000 
534.000000	218.262000 
534.500000	218.900000 
535.000000	204.448000 
535.500000	208.752000 
536.000000	202.331000 
536.500000	202.714000 
537.000000	202.855000 
537.500000	188.305000 
538.000000	184.946000 
538.500000	181.905000 
539.000000	181.529000 
539.500000	175.981000 
540.000000	176.494000 
540.500000	176.072000 
541.000000	171.984000 
541.500000	166.778000 
542.000000	160.626000 
542.500000	158.537000 
543.000000	154.308000 
543.500000	154.193000 
544.000000	155.682000 
544.500000	149.068000 
545.000000	148.714000 
545.500000	151.686000 
546.000000	143.836000 
546.500000	144.148000 
547.000000	145.374000 
547.500000	141.476000 
548.000000	140.607000 
548.500000	141.072000 
549.000000	133.767000 
549.500000	133.954000 
550.000000	133.124000 
550.500000	128.859000 
551.000000	124.076000 
551.500000	121.533000 
552.000000	122.055000 
552.500000	120.150000 
553.000000	115.119000 
553.500000	118.404000 
554.000000	117.325000 
554.500000	111.230000 
555.000000	110.399000 
555.500000	110.885000 
556.000000	103.541000 
556.500000	105.962000 
557.000000	106.471000 
557.500000	99.495000  
558.000000	101.134000 
558.500000	101.636000 
559.000000	99.501000  
559.500000	90.322000  
560.000000	94.476000  
560.500000	91.301000  
561.000000	88.727999  
561.500000	88.598000  
562.000000	85.587000  
562.500000	84.437000  
563.000000	81.971999  
563.500000	77.900000  
564.000000	81.941000  
564.500000	74.428000  
565.000000	72.599999  
565.500000	73.889000  
566.000000	75.797000  
566.500000	70.874000  
567.000000	69.748000  
567.500000	65.483000  
568.000000	62.977000  
568.500000	65.403000  
569.000000	65.319999  
569.500000	64.133000  
570.000000	58.190000  
570.500000	57.920000  
571.000000	60.203000  
571.500000	57.215000  
572.000000	57.115000  
572.500000	53.686000  
573.000000	51.590000  
573.500000	48.211000  
574.000000	50.367000  
574.500000	49.505000  
575.000000	46.947000  
575.500000	45.105000  
576.000000	49.093000  
576.500000	44.883000  
577.000000	44.615000  
577.500000	40.238000  
578.000000	41.382000  
578.500000	39.215000  
579.000000	39.871000  
579.500000	36.984000  
580.000000	37.882000  
580.500000	37.678000  
581.000000	35.733000  
581.500000	35.707000  
582.000000	35.486000  
582.500000	34.977000  
583.000000	34.311000  
583.500000	32.227000  
584.000000	30.052000  
584.500000	31.931000  
585.000000	28.950000  
585.500000	31.678000  
586.000000	31.165000  
586.500000	29.107000  
587.000000	27.695000  
587.500000	26.320000  
588.000000	28.103000  
588.500000	26.540000  
589.000000	26.493000  
589.500000	24.610000  
590.000000	26.099000  
590.500000	25.147000  
591.000000	22.967000  
591.500000	25.250000  
592.000000	24.179000  
592.500000	22.667000  
593.000000	22.614000  
593.500000	21.879000  
594.000000	21.890000  
594.500000	22.094000  
595.000000	21.593000  
595.500000	19.015000  
596.000000	21.022000  
596.500000	20.157000  
597.000000	19.644000  
597.500000	19.445000  
598.000000	17.421000  
598.500000	17.470000  
599.000000	18.910000  
599.500000	17.943000  
600.000000	17.961000  
600.500000	17.227000  
601.000000	16.438000  
601.500000	17.044000  
602.000000	14.905000  
602.500000	15.083000  
603.000000	16.042000  
603.500000	15.199000  
604.000000	16.622000  
604.500000	15.061000  
605.000000	15.881000  
605.500000	15.586000  
606.000000	13.539000  
606.500000	13.141000  
607.000000	14.975000  
607.500000	14.045000  
608.000000	13.194000  
608.500000	13.180000  
609.000000	12.903000  
609.500000	12.552000  
610.000000	12.351000  
610.500000	12.457000  
611.000000	11.943000  
611.500000	11.507000  
612.000000	10.677000  
612.500000	10.966000  
613.000000	11.055000  
613.500000	11.988000  
614.000000	11.717000  
614.500000	10.157000  
615.000000	9.327000   
615.500000	9.805999   
616.000000	10.560000  
616.500000	10.196000  
617.000000	8.726000   
617.500000	8.661000   
618.000000	8.831000   
618.500000	8.576000   
619.000000	8.939000   
619.500000	8.366000   
620.000000	7.456000   
620.500000	8.294000   
621.000000	7.422000   
621.500000	8.346000   
622.000000	6.795000   
622.500000	7.225000   
623.000000	7.658000   
623.500000	7.211000   
624.000000	6.650000   
624.500000	7.035000   
625.000000	6.722000   
625.500000	6.276000   
626.000000	7.418000   
626.500000	6.623000   
627.000000	5.808000   
627.500000	5.722000   
628.000000	5.021000   
628.500000	5.122000   
629.000000	6.007000   
629.500000	5.955000   
630.000000	5.368000   
630.500000	4.955000   
631.000000	4.717000   
631.500000	4.566000   
632.000000	5.278000   
632.500000	4.705000   
633.000000	4.674000   
633.500000	4.319000   
634.000000	4.975000   
634.500000	4.374000   
635.000000	4.179000   
635.500000	3.828000   
636.000000	4.077000   
636.500000	3.653000   
637.000000	3.619000   
637.500000	3.306000   
638.000000	3.996000   
638.500000	3.733000   
639.000000	3.894000   
639.500000	4.398000   
640.000000	3.506000   
640.500000	3.332000   
641.000000	3.089000   
641.500000	4.321000   
642.000000	3.959000   
642.500000	2.893000   
643.000000	2.433000   
643.500000	3.374000   
644.000000	2.624000   
644.500000	3.059000   
645.000000	2.199000   
645.500000	3.094000   
646.000000	2.435000   
646.500000	2.723000   
647.000000	2.661000   
647.500000	2.349000   
648.000000	2.120000   
648.500000	2.130000   
649.000000	2.365000   
649.500000	2.258000   
650.000000	2.345000   
650.500000	2.336000   
651.000000	2.003000   
651.500000	2.027000   
652.000000	2.061000   
652.500000	2.053000   
653.000000	2.034000   
653.500000	1.931000   
654.000000	2.269000   
654.500000	2.004000   
655.000000	2.156000   
655.500000	1.852000   
656.000000	1.832000   
656.500000	1.397000   
657.000000	1.685000   
657.500000	1.368000   
658.000000	1.360000   
658.500000	1.723000   
659.000000	1.963000   
659.500000	1.497000   
660.000000	1.320000   
660.500000	1.670000   
661.000000	1.493000   
661.500000	1.488000   
662.000000	1.918000   
662.500000	2.073000   
663.000000	1.787000   
663.500000	1.238000   
664.000000	1.133000   
664.500000	1.210000   
665.000000	1.217000   
665.500000	2.136000   
666.000000	1.360000   
666.500000	0.994000   
667.000000	1.088000   
667.500000	1.536000   
668.000000	1.397000   
668.500000	1.575000   
669.000000	1.478000   
669.500000	1.600000   
670.000000	1.254000   
670.500000	1.236000   
671.000000	1.230000   
671.500000	1.169000   
672.000000	1.058000   
672.500000	1.208000   
673.000000	1.382000   
673.500000	1.170000   
674.000000	1.324000   
674.500000	1.076000   
675.000000	0.945000   
675.500000	0.839000   
676.000000	1.033000   
676.500000	0.855000   
677.000000	1.027000   
677.500000	1.177000   
678.000000	0.816999   
678.500000	0.990000   
679.000000	0.855000   
679.500000	1.028000   
680.000000	0.849000   
680.500000	0.884000   
681.000000	0.930000   
681.500000	0.891000   
682.000000	0.729000   
682.500000	0.956000   
683.000000	1.041000   
683.500000	1.221000   
684.000000	0.928000   
684.500000	1.003000   
685.000000	0.630000   
685.500000	1.319000   
686.000000	0.897000   
686.500000	1.005000   
687.000000	0.947000   
687.500000	1.055000   
688.000000	0.566999   
688.500000	0.673000   
689.000000	1.148000   
689.500000	0.899000   
690.000000	0.766000   
690.500000	0.998000   
691.000000	0.795000   
691.500000	0.957000   
692.000000	0.907000   
692.500000	0.843000   
693.000000	1.024000   
693.500000	0.441000   
694.000000	0.876000   
694.500000	0.750000   
695.000000	0.878000   
695.500000	0.450000   
696.000000	0.646000   
696.500000	0.730000   
697.000000	0.510000   
697.500000	0.605000   
698.000000	0.577000   
698.500000	0.598000   
699.000000	0.792000   
699.500000	0.879000   
700.000000	1.338000   
700.500000	1.796000   

