PE FL                   SPECTRUM    ASCII       PEDS        1.60        
  -1
DMB010.SP
23/03/01
16:27:36.00
23/03/01
16:28:37.00


700.500000
1









LS50-B
415.00
2.50
2.50
SCAN
1
20
100
100
0
400
0
1
0
1
7
ON
700 415 
1 0 0
#HDR
-1
-1
#GR
NM
INT 
0.00002384185791015625
0.0
380.000000
0.500000
642
8
434.232000
0.001000
#DATA
380.000000	0.001000   
380.500000	0.249000   
381.000000	0.069000   
381.500000	0.238000   
382.000000	0.194000   
382.500000	0.137000   
383.000000	0.335000   
383.500000	0.154000   
384.000000	0.183000   
384.500000	0.282000   
385.000000	0.350000   
385.500000	0.417000   
386.000000	0.070999   
386.500000	0.146000   
387.000000	0.069000   
387.500000	0.110000   
388.000000	0.480000   
388.500000	0.132000   
389.000000	0.136000   
389.500000	0.242000   
390.000000	0.083000   
390.500000	0.056000   
391.000000	0.100000   
391.500000	0.438000   
392.000000	0.049000   
392.500000	0.149000   
393.000000	0.336000   
393.500000	0.155000   
394.000000	0.162000   
394.500000	0.099000   
395.000000	0.219000   
395.500000	0.424000   
396.000000	0.098000   
396.500000	0.329000   
397.000000	0.288000   
397.500000	0.539000   
398.000000	0.357000   
398.500000	0.416000   
399.000000	0.458000   
399.500000	0.399000   
400.000000	0.436000   
400.500000	0.129000   
401.000000	0.102000   
401.500000	0.624000   
402.000000	0.328000   
402.500000	0.322000   
403.000000	0.313000   
403.500000	0.111000   
404.000000	0.104000   
404.500000	0.331000   
405.000000	0.342000   
405.500000	0.317000   
406.000000	0.405000   
406.500000	0.486000   
407.000000	0.647000   
407.500000	0.414000   
408.000000	0.680000   
408.500000	1.348000   
409.000000	2.129000   
409.500000	4.288000   
410.000000	8.561999   
410.500000	15.916000  
411.000000	25.182000  
411.500000	40.707000  
412.000000	60.623000  
412.500000	83.511000  
413.000000	102.632000 
413.500000	120.688000 
414.000000	125.216000 
414.500000	119.587000 
415.000000	101.229000 
415.500000	83.766000  
416.000000	63.619000  
416.500000	40.505000  
417.000000	23.524000  
417.500000	12.218000  
418.000000	7.326000   
418.500000	3.143000   
419.000000	2.171000   
419.500000	1.589000   
420.000000	1.068000   
420.500000	0.491000   
421.000000	0.187000   
421.500000	0.498000   
422.000000	0.452000   
422.500000	0.555000   
423.000000	0.559000   
423.500000	0.287000   
424.000000	0.423000   
424.500000	0.362000   
425.000000	0.649000   
425.500000	0.615000   
426.000000	0.456000   
426.500000	0.462000   
427.000000	0.612000   
427.500000	0.547000   
428.000000	0.259000   
428.500000	0.405000   
429.000000	0.360000   
429.500000	0.687000   
430.000000	0.660000   
430.500000	0.557000   
431.000000	0.444000   
431.500000	0.495000   
432.000000	0.614000   
432.500000	0.673000   
433.000000	0.623000   
433.500000	0.902000   
434.000000	0.828000   
434.500000	0.707000   
435.000000	0.673000   
435.500000	1.113000   
436.000000	0.774000   
436.500000	0.741000   
437.000000	0.731000   
437.500000	1.168000   
438.000000	0.705000   
438.500000	0.769000   
439.000000	0.604000   
439.500000	1.248000   
440.000000	1.031000   
440.500000	0.984000   
441.000000	1.219000   
441.500000	1.206000   
442.000000	1.051000   
442.500000	1.061000   
443.000000	0.963000   
443.500000	1.074000   
444.000000	0.870000   
444.500000	1.060000   
445.000000	1.783000   
445.500000	1.850000   
446.000000	1.422000   
446.500000	1.214000   
447.000000	1.598000   
447.500000	1.345000   
448.000000	1.513000   
448.500000	1.218000   
449.000000	1.274000   
449.500000	1.593000   
450.000000	1.498000   
450.500000	1.498000   
451.000000	1.406000   
451.500000	1.753000   
452.000000	1.652000   
452.500000	2.176000   
453.000000	1.798000   
453.500000	2.304000   
454.000000	1.964000   
454.500000	1.651000   
455.000000	1.621000   
455.500000	1.498000   
456.000000	2.137000   
456.500000	2.219000   
457.000000	2.127000   
457.500000	2.777000   
458.000000	1.737000   
458.500000	2.328000   
459.000000	2.429000   
459.500000	2.034000   
460.000000	2.101000   
460.500000	2.522000   
461.000000	2.609000   
461.500000	2.399000   
462.000000	2.584000   
462.500000	2.700000   
463.000000	2.727000   
463.500000	2.520000   
464.000000	2.740000   
464.500000	2.693000   
465.000000	2.335000   
465.500000	2.180000   
466.000000	2.318000   
466.500000	2.669000   
467.000000	2.853000   
467.500000	3.597000   
468.000000	2.959000   
468.500000	2.569000   
469.000000	2.325000   
469.500000	3.422000   
470.000000	3.304000   
470.500000	2.820000   
471.000000	2.946000   
471.500000	3.180000   
472.000000	2.572000   
472.500000	2.935000   
473.000000	2.696000   
473.500000	3.858000   
474.000000	4.235000   
474.500000	3.585000   
475.000000	3.302000   
475.500000	3.542000   
476.000000	4.387000   
476.500000	3.660000   
477.000000	4.011000   
477.500000	4.077000   
478.000000	4.294000   
478.500000	4.387000   
479.000000	4.750000   
479.500000	5.251000   
480.000000	5.472000   
480.500000	6.276000   
481.000000	6.625000   
481.500000	7.723000   
482.000000	7.475000   
482.500000	7.944000   
483.000000	8.146000   
483.500000	9.380000   
484.000000	9.523999   
484.500000	9.217000   
485.000000	10.789000  
485.500000	11.070000  
486.000000	13.374000  
486.500000	13.959000  
487.000000	15.235000  
487.500000	16.905000  
488.000000	17.147000  
488.500000	19.536000  
489.000000	21.189000  
489.500000	22.696000  
490.000000	24.606000  
490.500000	26.942000  
491.000000	28.537000  
491.500000	31.603000  
492.000000	34.327000  
492.500000	35.994000  
493.000000	40.920000  
493.500000	42.348000  
494.000000	49.115000  
494.500000	52.022000  
495.000000	55.633000  
495.500000	62.272000  
496.000000	67.480999  
496.500000	70.126000  
497.000000	77.473000  
497.500000	88.426000  
498.000000	90.586000  
498.500000	102.830000 
499.000000	109.049000 
499.500000	112.748000 
500.000000	129.970000 
500.500000	136.820000 
501.000000	145.972000 
501.500000	159.974000 
502.000000	164.811000 
502.500000	175.220000 
503.000000	186.291000 
503.500000	198.738000 
504.000000	209.449000 
504.500000	220.555000 
505.000000	236.441000 
505.500000	245.800000 
506.000000	258.364000 
506.500000	268.498000 
507.000000	285.487000 
507.500000	295.710000 
508.000000	314.287000 
508.500000	317.303000 
509.000000	332.590000 
509.500000	355.000000 
510.000000	350.803000 
510.500000	357.429000 
511.000000	367.617000 
511.500000	393.856000 
512.000000	393.237000 
512.500000	401.887000 
513.000000	408.734000 
513.500000	405.651000 
514.000000	410.499000 
514.500000	420.340000 
515.000000	423.280000 
515.500000	419.870000 
516.000000	418.945000 
516.500000	434.232000 
517.000000	425.625000 
517.500000	432.546000 
518.000000	426.574000 
518.500000	415.465000 
519.000000	414.588000 
519.500000	415.030000 
520.000000	424.667000 
520.500000	417.863000 
521.000000	418.719000 
521.500000	396.157000 
522.000000	400.505000 
522.500000	403.056000 
523.000000	396.067000 
523.500000	381.970000 
524.000000	378.837000 
524.500000	379.129000 
525.000000	368.396000 
525.500000	368.998000 
526.000000	345.320000 
526.500000	352.391000 
527.000000	348.518000 
527.500000	337.517000 
528.000000	328.557000 
528.500000	322.081000 
529.000000	324.361000 
529.500000	314.672000 
530.000000	312.617000 
530.500000	301.765000 
531.000000	304.310000 
531.500000	286.164000 
532.000000	291.194000 
532.500000	286.832000 
533.000000	270.675000 
533.500000	265.127000 
534.000000	264.309000 
534.500000	260.282000 
535.000000	256.238000 
535.500000	253.295000 
536.000000	246.463000 
536.500000	237.860000 
537.000000	234.584000 
537.500000	230.691000 
538.000000	230.339000 
538.500000	227.448000 
539.000000	215.630000 
539.500000	212.445000 
540.000000	216.497000 
540.500000	211.668000 
541.000000	206.774000 
541.500000	204.876000 
542.000000	199.988000 
542.500000	198.158000 
543.000000	197.197000 
543.500000	190.343000 
544.000000	193.268000 
544.500000	185.064000 
545.000000	189.336000 
545.500000	181.988000 
546.000000	175.395000 
546.500000	177.098000 
547.000000	179.380000 
547.500000	171.971000 
548.000000	166.620000 
548.500000	165.127000 
549.000000	159.454000 
549.500000	159.448000 
550.000000	164.736000 
550.500000	151.909000 
551.000000	153.208000 
551.500000	149.990000 
552.000000	146.213000 
552.500000	144.058000 
553.000000	143.506000 
553.500000	138.938000 
554.000000	134.619000 
554.500000	135.978000 
555.000000	136.185000 
555.500000	134.419000 
556.000000	129.754000 
556.500000	130.324000 
557.000000	124.723000 
557.500000	130.456000 
558.000000	120.131000 
558.500000	118.118000 
559.000000	114.012000 
559.500000	111.822000 
560.000000	111.283000 
560.500000	106.111000 
561.000000	110.729000 
561.500000	108.154000 
562.000000	104.259000 
562.500000	100.944000 
563.000000	99.807000  
563.500000	101.100000 
564.000000	95.696000  
564.500000	91.511000  
565.000000	91.632000  
565.500000	90.940000  
566.000000	89.919000  
566.500000	86.285000  
567.000000	84.093999  
567.500000	79.912000  
568.000000	83.486000  
568.500000	79.732000  
569.000000	75.670000  
569.500000	77.980999  
570.000000	73.102999  
570.500000	71.867000  
571.000000	69.392000  
571.500000	68.605000  
572.000000	66.072000  
572.500000	65.997000  
573.000000	60.820000  
573.500000	64.842000  
574.000000	59.178000  
574.500000	59.469000  
575.000000	60.204000  
575.500000	59.738000  
576.000000	56.047000  
576.500000	51.894000  
577.000000	53.488000  
577.500000	53.275000  
578.000000	51.991000  
578.500000	48.730000  
579.000000	46.397000  
579.500000	50.125000  
580.000000	47.066000  
580.500000	44.804000  
581.000000	44.082000  
581.500000	44.488000  
582.000000	40.540000  
582.500000	41.452000  
583.000000	39.989000  
583.500000	40.666000  
584.000000	38.507000  
584.500000	39.572000  
585.000000	38.835000  
585.500000	39.627000  
586.000000	34.905000  
586.500000	36.586000  
587.000000	34.834000  
587.500000	35.971000  
588.000000	31.978000  
588.500000	32.741000  
589.000000	30.979000  
589.500000	31.277000  
590.000000	29.118000  
590.500000	28.832000  
591.000000	29.562000  
591.500000	29.263000  
592.000000	29.575000  
592.500000	27.483000  
593.000000	27.685000  
593.500000	25.826000  
594.000000	25.861000  
594.500000	24.645000  
595.000000	24.580000  
595.500000	24.851000  
596.000000	22.989000  
596.500000	24.093000  
597.000000	22.570000  
597.500000	20.358000  
598.000000	22.163000  
598.500000	21.799000  
599.000000	22.089000  
599.500000	22.336000  
600.000000	19.802000  
600.500000	20.756000  
601.000000	19.438000  
601.500000	19.337000  
602.000000	19.959000  
602.500000	20.623000  
603.000000	19.918000  
603.500000	17.626000  
604.000000	17.688000  
604.500000	17.513000  
605.000000	18.144000  
605.500000	16.475000  
606.000000	16.956000  
606.500000	16.038000  
607.000000	15.582000  
607.500000	15.300000  
608.000000	14.994000  
608.500000	14.867000  
609.000000	14.753000  
609.500000	16.675000  
610.000000	13.896000  
610.500000	13.416000  
611.000000	13.047000  
611.500000	12.343000  
612.000000	12.670000  
612.500000	12.958000  
613.000000	12.861000  
613.500000	13.610000  
614.000000	12.473000  
614.500000	13.174000  
615.000000	13.333000  
615.500000	12.100000  
616.000000	10.756000  
616.500000	11.056000  
617.000000	10.684000  
617.500000	11.860000  
618.000000	10.243000  
618.500000	10.558000  
619.000000	10.161000  
619.500000	9.092000   
620.000000	9.787000   
620.500000	10.685000  
621.000000	10.623000  
621.500000	8.497000   
622.000000	8.506000   
622.500000	8.677000   
623.000000	8.426000   
623.500000	8.816000   
624.000000	8.484000   
624.500000	7.657000   
625.000000	7.086000   
625.500000	7.963000   
626.000000	7.878000   
626.500000	7.398000   
627.000000	7.455000   
627.500000	6.689000   
628.000000	7.341000   
628.500000	7.563000   
629.000000	6.395000   
629.500000	5.850000   
630.000000	6.461000   
630.500000	5.881000   
631.000000	5.634000   
631.500000	4.921000   
632.000000	5.566000   
632.500000	5.302000   
633.000000	6.167000   
633.500000	5.939000   
634.000000	5.278000   
634.500000	4.556000   
635.000000	6.017000   
635.500000	5.312000   
636.000000	4.687000   
636.500000	4.863000   
637.000000	4.453000   
637.500000	5.352000   
638.000000	4.620000   
638.500000	4.655000   
639.000000	4.695000   
639.500000	3.681000   
640.000000	4.241000   
640.500000	4.503000   
641.000000	4.055000   
641.500000	3.648000   
642.000000	3.698000   
642.500000	3.579000   
643.000000	3.156000   
643.500000	4.602000   
644.000000	3.869000   
644.500000	3.773000   
645.000000	3.707000   
645.500000	3.110000   
646.000000	3.378000   
646.500000	3.450000   
647.000000	3.041000   
647.500000	2.722000   
648.000000	2.971000   
648.500000	2.746000   
649.000000	2.864000   
649.500000	2.340000   
650.000000	2.799000   
650.500000	2.719000   
651.000000	2.343000   
651.500000	2.292000   
652.000000	2.800000   
652.500000	2.547000   
653.000000	1.973000   
653.500000	2.390000   
654.000000	2.128000   
654.500000	2.904000   
655.000000	2.123000   
655.500000	2.540000   
656.000000	2.334000   
656.500000	2.406000   
657.000000	2.368000   
657.500000	2.346000   
658.000000	2.241000   
658.500000	1.964000   
659.000000	2.412000   
659.500000	1.542000   
660.000000	1.714000   
660.500000	1.892000   
661.000000	1.587000   
661.500000	2.248000   
662.000000	1.877000   
662.500000	1.843000   
663.000000	1.688000   
663.500000	2.051000   
664.000000	2.060000   
664.500000	1.827000   
665.000000	1.530000   
665.500000	1.296000   
666.000000	2.065000   
666.500000	1.863000   
667.000000	1.692000   
667.500000	1.358000   
668.000000	1.638000   
668.500000	1.506000   
669.000000	2.096000   
669.500000	1.198000   
670.000000	1.489000   
670.500000	1.159000   
671.000000	1.753000   
671.500000	1.375000   
672.000000	1.895000   
672.500000	1.358000   
673.000000	1.315000   
673.500000	0.851000   
674.000000	1.223000   
674.500000	1.694000   
675.000000	1.210000   
675.500000	1.501000   
676.000000	1.300000   
676.500000	1.077000   
677.000000	1.106000   
677.500000	1.439000   
678.000000	1.048000   
678.500000	1.224000   
679.000000	1.027000   
679.500000	0.984000   
680.000000	0.833000   
680.500000	0.970000   
681.000000	0.849000   
681.500000	0.767000   
682.000000	0.875000   
682.500000	0.997000   
683.000000	1.162000   
683.500000	0.937000   
684.000000	1.074000   
684.500000	0.813999   
685.000000	1.077000   
685.500000	0.758000   
686.000000	1.002000   
686.500000	0.695000   
687.000000	0.863000   
687.500000	0.902000   
688.000000	0.845000   
688.500000	0.771000   
689.000000	0.808000   
689.500000	0.816999   
690.000000	0.910000   
690.500000	0.708000   
691.000000	0.642000   
691.500000	0.920000   
692.000000	0.940999   
692.500000	0.569000   
693.000000	0.547000   
693.500000	0.526000   
694.000000	0.663000   
694.500000	0.478000   
695.000000	0.644000   
695.500000	0.824000   
696.000000	0.912000   
696.500000	0.551000   
697.000000	0.673000   
697.500000	0.842000   
698.000000	0.565999   
698.500000	0.769000   
699.000000	0.879000   
699.500000	0.773000   
700.000000	1.190000   
700.500000	1.606000   

