PE FL                   SPECTRUM    ASCII       PEDS        1.60        
  -1
DMB006.SP
23/03/01
16:12:52.00
23/03/01
16:13:53.00


700.500000
1









LS50-B
415.00
2.50
2.50
SCAN
1
20
100
100
0
400
0
1
0
1
7
ON
700 415 
1 0 0
#HDR
-1
-1
#GR
NM
INT 
0.00002384185791015625
0.0
380.000000
0.500000
642
8
212.585000
-0.016000
#DATA
380.000000	0.153000   
380.500000	-0.016000  
381.000000	0.157000   
381.500000	0.111000   
382.000000	0.013000   
382.500000	0.055000   
383.000000	0.086999   
383.500000	0.000000   
384.000000	0.105000   
384.500000	0.126000   
385.000000	0.073000   
385.500000	0.087999   
386.000000	0.153000   
386.500000	0.176000   
387.000000	0.066000   
387.500000	0.087999   
388.000000	0.178000   
388.500000	0.178000   
389.000000	-0.005000  
389.500000	0.190000   
390.000000	0.048000   
390.500000	0.338000   
391.000000	0.097000   
391.500000	0.176000   
392.000000	0.287000   
392.500000	0.141000   
393.000000	0.021000   
393.500000	0.193000   
394.000000	0.066000   
394.500000	0.044000   
395.000000	0.089000   
395.500000	0.261000   
396.000000	0.099000   
396.500000	0.203000   
397.000000	0.337000   
397.500000	0.173000   
398.000000	0.118000   
398.500000	0.276000   
399.000000	0.364000   
399.500000	0.111000   
400.000000	0.154000   
400.500000	0.049000   
401.000000	0.044000   
401.500000	0.130000   
402.000000	0.093000   
402.500000	0.103000   
403.000000	0.126000   
403.500000	0.021000   
404.000000	0.339000   
404.500000	0.260000   
405.000000	0.154000   
405.500000	0.601000   
406.000000	0.456000   
406.500000	0.198000   
407.000000	0.154000   
407.500000	0.522000   
408.000000	0.833000   
408.500000	1.014000   
409.000000	1.727000   
409.500000	5.419000   
410.000000	8.545000   
410.500000	13.378000  
411.000000	25.939000  
411.500000	40.523000  
412.000000	58.467000  
412.500000	80.440000  
413.000000	102.769000 
413.500000	119.522000 
414.000000	123.738000 
414.500000	119.782000 
415.000000	103.523000 
415.500000	85.709999  
416.000000	62.153000  
416.500000	38.337000  
417.000000	23.529000  
417.500000	12.170000  
418.000000	6.423000   
418.500000	3.232000   
419.000000	1.713000   
419.500000	0.757000   
420.000000	0.689999   
420.500000	0.756000   
421.000000	0.496000   
421.500000	0.624000   
422.000000	0.276000   
422.500000	0.157000   
423.000000	0.430000   
423.500000	0.326000   
424.000000	0.374000   
424.500000	0.293000   
425.000000	0.458000   
425.500000	0.230000   
426.000000	0.497000   
426.500000	0.424000   
427.000000	0.167000   
427.500000	0.504000   
428.000000	0.158000   
428.500000	0.403000   
429.000000	0.761000   
429.500000	0.399000   
430.000000	0.275000   
430.500000	0.443000   
431.000000	0.447000   
431.500000	0.288000   
432.000000	0.417000   
432.500000	0.378000   
433.000000	0.558000   
433.500000	0.451000   
434.000000	0.419000   
434.500000	0.639000   
435.000000	0.592000   
435.500000	0.194000   
436.000000	0.399000   
436.500000	0.731000   
437.000000	0.684000   
437.500000	0.655000   
438.000000	0.774000   
438.500000	0.710000   
439.000000	0.739000   
439.500000	0.806000   
440.000000	0.800000   
440.500000	0.501000   
441.000000	0.402000   
441.500000	0.857000   
442.000000	0.846000   
442.500000	0.907000   
443.000000	1.073000   
443.500000	0.695000   
444.000000	0.797000   
444.500000	0.825000   
445.000000	0.724000   
445.500000	1.139000   
446.000000	1.152000   
446.500000	1.229000   
447.000000	0.814999   
447.500000	0.666000   
448.000000	0.669000   
448.500000	0.851000   
449.000000	0.946000   
449.500000	0.491000   
450.000000	0.742000   
450.500000	1.331000   
451.000000	1.144000   
451.500000	0.882000   
452.000000	1.192000   
452.500000	0.925000   
453.000000	1.149000   
453.500000	1.286000   
454.000000	1.214000   
454.500000	1.464000   
455.000000	1.466000   
455.500000	1.256000   
456.000000	1.426000   
456.500000	1.327000   
457.000000	1.330000   
457.500000	1.396000   
458.000000	1.238000   
458.500000	0.974000   
459.000000	1.341000   
459.500000	1.688000   
460.000000	1.624000   
460.500000	1.715000   
461.000000	1.361000   
461.500000	1.963000   
462.000000	1.192000   
462.500000	1.432000   
463.000000	1.534000   
463.500000	1.635000   
464.000000	1.663000   
464.500000	1.789000   
465.000000	2.262000   
465.500000	1.559000   
466.000000	2.063000   
466.500000	2.147000   
467.000000	2.123000   
467.500000	2.462000   
468.000000	1.587000   
468.500000	2.334000   
469.000000	1.700000   
469.500000	1.697000   
470.000000	1.694000   
470.500000	1.720000   
471.000000	2.215000   
471.500000	2.367000   
472.000000	2.678000   
472.500000	2.101000   
473.000000	1.667000   
473.500000	2.940000   
474.000000	2.668000   
474.500000	2.431000   
475.000000	2.528000   
475.500000	2.892000   
476.000000	3.189000   
476.500000	2.913000   
477.000000	2.895000   
477.500000	3.417000   
478.000000	3.385000   
478.500000	3.343000   
479.000000	3.753000   
479.500000	4.187000   
480.000000	4.530000   
480.500000	4.984000   
481.000000	6.061000   
481.500000	6.260000   
482.000000	5.211000   
482.500000	5.529000   
483.000000	6.144000   
483.500000	6.896000   
484.000000	7.639000   
484.500000	7.212000   
485.000000	9.400000   
485.500000	9.132999   
486.000000	10.703000  
486.500000	11.446000  
487.000000	12.340000  
487.500000	12.602000  
488.000000	14.891000  
488.500000	16.294000  
489.000000	18.500000  
489.500000	19.626000  
490.000000	20.909000  
490.500000	22.390000  
491.000000	24.874000  
491.500000	26.214000  
492.000000	28.937000  
492.500000	30.142000  
493.000000	34.781000  
493.500000	37.481000  
494.000000	39.541000  
494.500000	43.482000  
495.000000	46.919000  
495.500000	48.345000  
496.000000	57.080000  
496.500000	58.328000  
497.000000	61.748000  
497.500000	68.571000  
498.000000	73.721999  
498.500000	76.700999  
499.000000	81.531000  
499.500000	88.255000  
500.000000	90.857000  
500.500000	98.400000  
501.000000	99.140000  
501.500000	108.524000 
502.000000	117.505000 
502.500000	120.719000 
503.000000	126.167000 
503.500000	127.928000 
504.000000	142.937000 
504.500000	149.515000 
505.000000	148.274000 
505.500000	154.293000 
506.000000	160.289000 
506.500000	166.686000 
507.000000	172.673000 
507.500000	166.957000 
508.000000	181.273000 
508.500000	182.850000 
509.000000	189.988000 
509.500000	188.618000 
510.000000	204.400000 
510.500000	196.354000 
511.000000	197.612000 
511.500000	194.257000 
512.000000	206.467000 
512.500000	206.473000 
513.000000	212.585000 
513.500000	202.767000 
514.000000	212.211000 
514.500000	208.797000 
515.000000	211.186000 
515.500000	204.746000 
516.000000	203.750000 
516.500000	207.200000 
517.000000	207.451000 
517.500000	199.578000 
518.000000	197.910000 
518.500000	189.488000 
519.000000	191.715000 
519.500000	195.024000 
520.000000	182.120000 
520.500000	186.709000 
521.000000	180.035000 
521.500000	188.408000 
522.000000	182.585000 
522.500000	181.805000 
523.000000	176.416000 
523.500000	174.728000 
524.000000	166.856000 
524.500000	164.492000 
525.000000	160.053000 
525.500000	158.437000 
526.000000	150.306000 
526.500000	151.809000 
527.000000	146.849000 
527.500000	148.235000 
528.000000	141.548000 
528.500000	139.846000 
529.000000	134.427000 
529.500000	129.228000 
530.000000	131.659000 
530.500000	127.907000 
531.000000	122.392000 
531.500000	124.353000 
532.000000	119.307000 
532.500000	115.269000 
533.000000	116.014000 
533.500000	112.968000 
534.000000	107.647000 
534.500000	108.786000 
535.000000	106.496000 
535.500000	101.140000 
536.000000	104.662000 
536.500000	105.084000 
537.000000	96.545000  
537.500000	98.218000  
538.000000	95.666000  
538.500000	91.741000  
539.000000	89.130000  
539.500000	89.634000  
540.000000	90.026000  
540.500000	85.081999  
541.000000	84.587000  
541.500000	84.688999  
542.000000	80.474999  
542.500000	81.241000  
543.000000	77.774000  
543.500000	78.965000  
544.000000	77.504000  
544.500000	73.861000  
545.000000	75.434000  
545.500000	73.499000  
546.000000	69.182000  
546.500000	68.308000  
547.000000	69.858999  
547.500000	66.813999  
548.000000	66.178000  
548.500000	62.593000  
549.000000	63.111000  
549.500000	60.610000  
550.000000	61.731000  
550.500000	62.258000  
551.000000	59.841000  
551.500000	58.889000  
552.000000	57.801000  
552.500000	56.249000  
553.000000	55.010000  
553.500000	53.170000  
554.000000	51.514000  
554.500000	52.224000  
555.000000	50.399000  
555.500000	47.889000  
556.000000	49.908000  
556.500000	47.914000  
557.000000	49.213000  
557.500000	44.746000  
558.000000	42.041000  
558.500000	43.671000  
559.000000	45.035000  
559.500000	42.188000  
560.000000	40.571000  
560.500000	41.312000  
561.000000	40.464000  
561.500000	40.734000  
562.000000	38.013000  
562.500000	37.919000  
563.000000	35.616000  
563.500000	34.145000  
564.000000	36.091000  
564.500000	35.098000  
565.000000	32.989000  
565.500000	32.668000  
566.000000	33.219000  
566.500000	29.926000  
567.000000	30.147000  
567.500000	29.515000  
568.000000	28.146000  
568.500000	27.516000  
569.000000	27.398000  
569.500000	26.346000  
570.000000	27.118000  
570.500000	24.870000  
571.000000	23.081000  
571.500000	24.867000  
572.000000	22.486000  
572.500000	22.392000  
573.000000	21.926000  
573.500000	21.296000  
574.000000	21.161000  
574.500000	20.537000  
575.000000	21.020000  
575.500000	20.494000  
576.000000	16.861000  
576.500000	19.470000  
577.000000	18.218000  
577.500000	18.897000  
578.000000	16.383000  
578.500000	16.662000  
579.000000	16.403000  
579.500000	17.157000  
580.000000	15.561000  
580.500000	15.348000  
581.000000	15.638000  
581.500000	12.869000  
582.000000	13.831000  
582.500000	13.944000  
583.000000	15.015000  
583.500000	12.575000  
584.000000	13.331000  
584.500000	11.855000  
585.000000	12.091000  
585.500000	10.550000  
586.000000	10.953000  
586.500000	9.867000   
587.000000	10.693000  
587.500000	10.905000  
588.000000	9.955000   
588.500000	11.424000  
589.000000	11.466000  
589.500000	9.141999   
590.000000	8.382000   
590.500000	9.364000   
591.000000	8.717000   
591.500000	9.760999   
592.000000	9.038000   
592.500000	8.770000   
593.000000	7.669000   
593.500000	8.398000   
594.000000	7.994000   
594.500000	8.481000   
595.000000	7.749000   
595.500000	8.430000   
596.000000	7.222000   
596.500000	7.632000   
597.000000	7.916000   
597.500000	9.039999   
598.000000	7.391000   
598.500000	7.376000   
599.000000	6.701000   
599.500000	7.397000   
600.000000	6.180000   
600.500000	6.681000   
601.000000	6.600000   
601.500000	6.722000   
602.000000	5.587000   
602.500000	6.068000   
603.000000	5.087000   
603.500000	5.602000   
604.000000	6.265000   
604.500000	5.316000   
605.000000	6.121000   
605.500000	5.028000   
606.000000	5.314000   
606.500000	5.576000   
607.000000	5.089000   
607.500000	4.657000   
608.000000	5.068000   
608.500000	4.684000   
609.000000	4.502000   
609.500000	5.402000   
610.000000	4.564000   
610.500000	4.529000   
611.000000	4.770000   
611.500000	4.671000   
612.000000	4.637000   
612.500000	4.242000   
613.000000	4.359000   
613.500000	4.298000   
614.000000	3.996000   
614.500000	3.868000   
615.000000	3.736000   
615.500000	3.205000   
616.000000	3.875000   
616.500000	3.970000   
617.000000	3.341000   
617.500000	3.785000   
618.000000	3.600000   
618.500000	3.435000   
619.000000	3.930000   
619.500000	3.611000   
620.000000	3.507000   
620.500000	3.445000   
621.000000	2.674000   
621.500000	3.474000   
622.000000	3.887000   
622.500000	3.188000   
623.000000	2.831000   
623.500000	3.124000   
624.000000	2.485000   
624.500000	2.697000   
625.000000	2.461000   
625.500000	2.841000   
626.000000	2.499000   
626.500000	2.320000   
627.000000	1.980000   
627.500000	1.724000   
628.000000	1.734000   
628.500000	1.884000   
629.000000	1.995000   
629.500000	2.079000   
630.000000	2.096000   
630.500000	2.338000   
631.000000	1.914000   
631.500000	2.087000   
632.000000	1.926000   
632.500000	1.830000   
633.000000	1.918000   
633.500000	1.823000   
634.000000	1.877000   
634.500000	1.615000   
635.000000	1.600000   
635.500000	1.616000   
636.000000	1.677000   
636.500000	1.604000   
637.000000	1.814000   
637.500000	1.723000   
638.000000	1.661000   
638.500000	1.541000   
639.000000	1.352000   
639.500000	1.128000   
640.000000	1.643000   
640.500000	1.248000   
641.000000	1.562000   
641.500000	1.713000   
642.000000	1.405000   
642.500000	1.167000   
643.000000	1.332000   
643.500000	1.804000   
644.000000	1.244000   
644.500000	1.370000   
645.000000	1.009000   
645.500000	1.277000   
646.000000	1.048000   
646.500000	1.167000   
647.000000	1.222000   
647.500000	1.149000   
648.000000	1.100000   
648.500000	0.979000   
649.000000	1.065000   
649.500000	1.338000   
650.000000	0.942999   
650.500000	1.056000   
651.000000	1.238000   
651.500000	1.224000   
652.000000	1.154000   
652.500000	0.678000   
653.000000	0.565999   
653.500000	0.528000   
654.000000	0.955000   
654.500000	0.783000   
655.000000	0.803000   
655.500000	0.897000   
656.000000	0.941999   
656.500000	1.025000   
657.000000	0.953000   
657.500000	0.772000   
658.000000	0.748000   
658.500000	1.045000   
659.000000	0.600000   
659.500000	0.819000   
660.000000	0.906000   
660.500000	0.884000   
661.000000	0.459000   
661.500000	0.867000   
662.000000	0.637000   
662.500000	0.571000   
663.000000	0.866000   
663.500000	0.637000   
664.000000	0.657000   
664.500000	0.649000   
665.000000	0.879000   
665.500000	0.401000   
666.000000	0.688999   
666.500000	0.612000   
667.000000	0.649000   
667.500000	0.660000   
668.000000	0.564999   
668.500000	0.536000   
669.000000	0.641000   
669.500000	0.515000   
670.000000	0.698000   
670.500000	0.368000   
671.000000	0.431000   
671.500000	0.641000   
672.000000	0.384000   
672.500000	0.422000   
673.000000	0.669000   
673.500000	0.326000   
674.000000	0.418000   
674.500000	0.533000   
675.000000	0.640000   
675.500000	0.533000   
676.000000	0.320000   
676.500000	0.601000   
677.000000	0.681000   
677.500000	0.503000   
678.000000	0.769000   
678.500000	0.598000   
679.000000	0.470000   
679.500000	0.397000   
680.000000	0.372000   
680.500000	0.592000   
681.000000	0.430000   
681.500000	0.509000   
682.000000	0.444000   
682.500000	0.500000   
683.000000	0.242000   
683.500000	0.614000   
684.000000	0.507000   
684.500000	0.435000   
685.000000	0.477000   
685.500000	0.436000   
686.000000	0.668000   
686.500000	0.273000   
687.000000	0.247000   
687.500000	0.200000   
688.000000	0.581000   
688.500000	0.696000   
689.000000	0.439000   
689.500000	0.307000   
690.000000	0.135000   
690.500000	0.208000   
691.000000	0.376000   
691.500000	0.523000   
692.000000	0.214000   
692.500000	0.304000   
693.000000	0.283000   
693.500000	0.446000   
694.000000	0.361000   
694.500000	0.379000   
695.000000	0.472000   
695.500000	0.657000   
696.000000	0.174000   
696.500000	0.198000   
697.000000	0.338000   
697.500000	0.175000   
698.000000	0.234000   
698.500000	0.383000   
699.000000	0.245000   
699.500000	0.501000   
700.000000	0.379000   
700.500000	0.258000   

