PE FL                   SPECTRUM    ASCII       PEDS        1.60        
  -1
DMB011.SP
23/03/01
16:30:20.00
23/03/01
16:31:22.00


700.500000
1









LS50-B
415.00
2.50
2.50
SCAN
1
20
100
100
0
400
0
1
0
1
7
ON
700 415 
1 0 0
#HDR
-1
-1
#GR
NM
INT 
0.00002384185791015625
0.0
380.000000
0.500000
642
8
581.841000
0.004000
#DATA
380.000000	0.144000   
380.500000	0.167000   
381.000000	0.131000   
381.500000	0.195000   
382.000000	0.004000   
382.500000	0.144000   
383.000000	0.109000   
383.500000	0.177000   
384.000000	0.098000   
384.500000	0.083000   
385.000000	0.125000   
385.500000	0.263000   
386.000000	0.212000   
386.500000	0.144000   
387.000000	0.051000   
387.500000	0.286000   
388.000000	0.022000   
388.500000	0.310000   
389.000000	0.498000   
389.500000	0.187000   
390.000000	0.136000   
390.500000	0.172000   
391.000000	0.443000   
391.500000	0.177000   
392.000000	0.242000   
392.500000	0.278000   
393.000000	0.290000   
393.500000	0.373000   
394.000000	0.044000   
394.500000	0.153000   
395.000000	0.297000   
395.500000	0.056000   
396.000000	0.331000   
396.500000	0.227000   
397.000000	0.138000   
397.500000	0.108000   
398.000000	0.325000   
398.500000	0.306000   
399.000000	0.229000   
399.500000	0.424000   
400.000000	0.311000   
400.500000	0.472000   
401.000000	0.232000   
401.500000	0.415000   
402.000000	0.403000   
402.500000	0.300000   
403.000000	0.233000   
403.500000	0.413000   
404.000000	0.154000   
404.500000	0.349000   
405.000000	0.305000   
405.500000	0.332000   
406.000000	0.324000   
406.500000	0.430000   
407.000000	0.668000   
407.500000	0.496000   
408.000000	0.786000   
408.500000	0.922000   
409.000000	1.600000   
409.500000	5.709000   
410.000000	7.243000   
410.500000	12.124000  
411.000000	23.150000  
411.500000	33.126000  
412.000000	54.581000  
412.500000	73.879000  
413.000000	87.770000  
413.500000	101.067000 
414.000000	108.859000 
414.500000	109.226000 
415.000000	91.309000  
415.500000	74.170000  
416.000000	54.681000  
416.500000	34.053000  
417.000000	20.775000  
417.500000	9.997000   
418.000000	6.183000   
418.500000	3.876000   
419.000000	1.459000   
419.500000	1.172000   
420.000000	0.763000   
420.500000	0.576000   
421.000000	0.416000   
421.500000	0.044000   
422.000000	0.550000   
422.500000	0.503000   
423.000000	0.633000   
423.500000	0.245000   
424.000000	0.681000   
424.500000	0.558000   
425.000000	0.661000   
425.500000	0.590000   
426.000000	0.519000   
426.500000	0.596000   
427.000000	0.559000   
427.500000	0.769000   
428.000000	0.704000   
428.500000	0.564999   
429.000000	0.654000   
429.500000	0.445000   
430.000000	0.405000   
430.500000	0.578000   
431.000000	0.737000   
431.500000	0.721000   
432.000000	0.660000   
432.500000	0.864000   
433.000000	0.611000   
433.500000	0.820000   
434.000000	0.427000   
434.500000	0.863000   
435.000000	1.282000   
435.500000	0.583000   
436.000000	0.699000   
436.500000	0.812999   
437.000000	0.845000   
437.500000	1.077000   
438.000000	1.240000   
438.500000	0.936000   
439.000000	0.783000   
439.500000	1.124000   
440.000000	1.137000   
440.500000	1.148000   
441.000000	1.301000   
441.500000	1.171000   
442.000000	1.278000   
442.500000	1.272000   
443.000000	1.611000   
443.500000	1.049000   
444.000000	1.505000   
444.500000	1.531000   
445.000000	1.358000   
445.500000	1.645000   
446.000000	1.257000   
446.500000	1.523000   
447.000000	1.817000   
447.500000	1.972000   
448.000000	1.644000   
448.500000	1.700000   
449.000000	1.666000   
449.500000	2.009000   
450.000000	2.415000   
450.500000	1.660000   
451.000000	1.850000   
451.500000	1.747000   
452.000000	1.593000   
452.500000	1.605000   
453.000000	2.080000   
453.500000	2.333000   
454.000000	2.206000   
454.500000	1.799000   
455.000000	2.043000   
455.500000	2.054000   
456.000000	2.646000   
456.500000	2.316000   
457.000000	2.823000   
457.500000	2.896000   
458.000000	2.366000   
458.500000	2.769000   
459.000000	2.811000   
459.500000	2.216000   
460.000000	2.800000   
460.500000	2.516000   
461.000000	2.490000   
461.500000	2.778000   
462.000000	3.243000   
462.500000	3.056000   
463.000000	2.756000   
463.500000	3.657000   
464.000000	3.025000   
464.500000	3.203000   
465.000000	2.855000   
465.500000	2.432000   
466.000000	2.995000   
466.500000	2.855000   
467.000000	3.370000   
467.500000	3.240000   
468.000000	3.662000   
468.500000	2.897000   
469.000000	2.706000   
469.500000	2.740000   
470.000000	3.553000   
470.500000	3.462000   
471.000000	3.469000   
471.500000	3.490000   
472.000000	4.041000   
472.500000	3.651000   
473.000000	3.194000   
473.500000	3.279000   
474.000000	4.056000   
474.500000	3.699000   
475.000000	2.981000   
475.500000	3.702000   
476.000000	4.280000   
476.500000	4.205000   
477.000000	5.157000   
477.500000	5.412000   
478.000000	5.218000   
478.500000	5.121000   
479.000000	5.974000   
479.500000	5.045000   
480.000000	6.177000   
480.500000	6.330000   
481.000000	7.016000   
481.500000	6.947000   
482.000000	7.968000   
482.500000	7.330000   
483.000000	8.448000   
483.500000	7.695000   
484.000000	9.827999   
484.500000	12.131000  
485.000000	12.084000  
485.500000	14.241000  
486.000000	14.761000  
486.500000	15.424000  
487.000000	17.377000  
487.500000	19.474000  
488.000000	21.023000  
488.500000	22.970000  
489.000000	22.807000  
489.500000	24.177000  
490.000000	27.384000  
490.500000	29.271000  
491.000000	32.251000  
491.500000	33.937000  
492.000000	35.951000  
492.500000	39.119000  
493.000000	46.141000  
493.500000	47.905000  
494.000000	53.535000  
494.500000	58.689000  
495.000000	65.863000  
495.500000	69.461000  
496.000000	74.709000  
496.500000	80.273000  
497.000000	85.538000  
497.500000	99.066999  
498.000000	105.659000 
498.500000	119.417000 
499.000000	125.746000 
499.500000	135.884000 
500.000000	149.210000 
500.500000	161.359000 
501.000000	172.988000 
501.500000	179.869000 
502.000000	198.230000 
502.500000	212.042000 
503.000000	224.705000 
503.500000	238.278000 
504.000000	245.744000 
504.500000	274.542000 
505.000000	292.197000 
505.500000	308.439000 
506.000000	316.559000 
506.500000	331.424000 
507.000000	360.745000 
507.500000	370.045000 
508.000000	393.580000 
508.500000	402.935000 
509.000000	414.959000 
509.500000	438.447000 
510.000000	450.318000 
510.500000	469.845000 
511.000000	488.344000 
511.500000	499.359000 
512.000000	504.861000 
512.500000	517.836000 
513.000000	529.504000 
513.500000	535.966000 
514.000000	539.375000 
514.500000	555.205000 
515.000000	558.165000 
515.500000	545.024000 
516.000000	570.677000 
516.500000	570.862000 
517.000000	578.141000 
517.500000	556.138000 
518.000000	560.932000 
518.500000	569.390000 
519.000000	581.841000 
519.500000	577.218000 
520.000000	560.818000 
520.500000	561.309999 
521.000000	555.473000 
521.500000	561.091000 
522.000000	549.849000 
522.500000	552.977000 
523.000000	543.230000 
523.500000	545.061000 
524.000000	533.633000 
524.500000	518.159000 
525.000000	505.695000 
525.500000	493.636000 
526.000000	492.344000 
526.500000	487.569000 
527.000000	471.826000 
527.500000	458.582000 
528.000000	460.276000 
528.500000	450.329000 
529.000000	448.451000 
529.500000	426.847000 
530.000000	427.953000 
530.500000	417.642000 
531.000000	413.428000 
531.500000	396.271000 
532.000000	388.361000 
532.500000	392.314000 
533.000000	388.187000 
533.500000	381.184000 
534.000000	370.946000 
534.500000	363.891000 
535.000000	355.150000 
535.500000	346.401000 
536.000000	341.671000 
536.500000	334.298000 
537.000000	317.837000 
537.500000	317.871000 
538.000000	315.182000 
538.500000	302.892000 
539.000000	300.089000 
539.500000	299.534000 
540.000000	301.798000 
540.500000	291.444000 
541.000000	282.066000 
541.500000	273.677000 
542.000000	275.255000 
542.500000	264.968000 
543.000000	259.342000 
543.500000	265.045000 
544.000000	250.368000 
544.500000	255.457000 
545.000000	250.434000 
545.500000	235.404000 
546.000000	243.651000 
546.500000	231.383000 
547.000000	227.324000 
547.500000	227.878000 
548.000000	228.770000 
548.500000	222.050000 
549.000000	216.296000 
549.500000	221.277000 
550.000000	205.876000 
550.500000	208.232000 
551.000000	200.050000 
551.500000	195.713000 
552.000000	194.968000 
552.500000	185.503000 
553.000000	187.944000 
553.500000	183.979000 
554.000000	180.684000 
554.500000	173.160000 
555.000000	171.657000 
555.500000	171.418000 
556.000000	167.436000 
556.500000	163.975000 
557.000000	166.997000 
557.500000	161.265000 
558.000000	152.534000 
558.500000	150.506000 
559.000000	145.316000 
559.500000	147.548000 
560.000000	143.149000 
560.500000	140.926000 
561.000000	136.655000 
561.500000	132.996000 
562.000000	131.466000 
562.500000	130.785000 
563.000000	129.735000 
563.500000	114.871000 
564.000000	119.809000 
564.500000	116.651000 
565.000000	109.228000 
565.500000	111.053000 
566.000000	106.979000 
566.500000	104.332000 
567.000000	100.542000 
567.500000	99.312000  
568.000000	95.787000  
568.500000	95.410000  
569.000000	90.715999  
569.500000	87.895000  
570.000000	89.409000  
570.500000	85.186000  
571.000000	80.977000  
571.500000	82.340000  
572.000000	83.425000  
572.500000	75.236000  
573.000000	74.108999  
573.500000	72.164000  
574.000000	69.672000  
574.500000	69.593000  
575.000000	67.611000  
575.500000	66.677000  
576.000000	65.099999  
576.500000	64.927000  
577.000000	61.960000  
577.500000	57.108000  
578.000000	60.409000  
578.500000	59.286000  
579.000000	55.967000  
579.500000	53.680000  
580.000000	55.531000  
580.500000	51.100000  
581.000000	50.415000  
581.500000	49.038000  
582.000000	48.415000  
582.500000	48.164000  
583.000000	45.534000  
583.500000	46.055000  
584.000000	44.534000  
584.500000	43.249000  
585.000000	42.038000  
585.500000	41.369000  
586.000000	42.166000  
586.500000	39.964000  
587.000000	40.490000  
587.500000	37.809000  
588.000000	36.758000  
588.500000	36.909000  
589.000000	35.313000  
589.500000	32.253000  
590.000000	35.277000  
590.500000	32.459000  
591.000000	31.795000  
591.500000	30.166000  
592.000000	30.184000  
592.500000	30.938000  
593.000000	27.830000  
593.500000	26.581000  
594.000000	31.303000  
594.500000	28.475000  
595.000000	26.538000  
595.500000	30.994000  
596.000000	27.221000  
596.500000	26.251000  
597.000000	26.678000  
597.500000	24.262000  
598.000000	24.300000  
598.500000	22.673000  
599.000000	22.481000  
599.500000	23.436000  
600.000000	22.766000  
600.500000	22.468000  
601.000000	22.714000  
601.500000	20.172000  
602.000000	22.271000  
602.500000	21.095000  
603.000000	19.633000  
603.500000	19.714000  
604.000000	19.546000  
604.500000	19.001000  
605.000000	19.782000  
605.500000	17.621000  
606.000000	17.213000  
606.500000	17.775000  
607.000000	18.386000  
607.500000	16.383000  
608.000000	16.802000  
608.500000	16.158000  
609.000000	15.401000  
609.500000	15.030000  
610.000000	14.418000  
610.500000	14.386000  
611.000000	14.002000  
611.500000	13.564000  
612.000000	14.695000  
612.500000	15.302000  
613.000000	13.579000  
613.500000	14.063000  
614.000000	13.345000  
614.500000	12.840000  
615.000000	13.362000  
615.500000	11.688000  
616.000000	10.775000  
616.500000	11.441000  
617.000000	10.435000  
617.500000	11.384000  
618.000000	12.055000  
618.500000	12.094000  
619.000000	9.992000   
619.500000	12.205000  
620.000000	10.805000  
620.500000	9.467000   
621.000000	10.383000  
621.500000	8.983000   
622.000000	9.382999   
622.500000	8.672000   
623.000000	8.782999   
623.500000	9.827000   
624.000000	8.534000   
624.500000	8.430000   
625.000000	7.295000   
625.500000	7.625000   
626.000000	8.035000   
626.500000	8.039999   
627.000000	8.715999   
627.500000	6.783000   
628.000000	7.989000   
628.500000	6.694000   
629.000000	7.356000   
629.500000	6.515000   
630.000000	6.975000   
630.500000	6.647000   
631.000000	7.032000   
631.500000	6.364000   
632.000000	6.251000   
632.500000	5.780000   
633.000000	5.677000   
633.500000	5.631000   
634.000000	5.964000   
634.500000	5.834000   
635.000000	4.628000   
635.500000	5.641000   
636.000000	4.869000   
636.500000	5.454000   
637.000000	5.018000   
637.500000	4.406000   
638.000000	4.721000   
638.500000	5.268000   
639.000000	4.685000   
639.500000	4.386000   
640.000000	4.346000   
640.500000	4.123000   
641.000000	4.449000   
641.500000	4.462000   
642.000000	3.997000   
642.500000	3.731000   
643.000000	3.450000   
643.500000	3.624000   
644.000000	3.560000   
644.500000	3.529000   
645.000000	3.496000   
645.500000	2.619000   
646.000000	3.221000   
646.500000	2.891000   
647.000000	2.901000   
647.500000	3.596000   
648.000000	3.703000   
648.500000	3.412000   
649.000000	3.272000   
649.500000	2.257000   
650.000000	2.531000   
650.500000	2.529000   
651.000000	2.983000   
651.500000	3.208000   
652.000000	2.732000   
652.500000	2.622000   
653.000000	2.498000   
653.500000	1.995000   
654.000000	2.786000   
654.500000	2.993000   
655.000000	3.159000   
655.500000	2.410000   
656.000000	2.790000   
656.500000	2.633000   
657.000000	2.046000   
657.500000	1.710000   
658.000000	2.175000   
658.500000	1.821000   
659.000000	2.006000   
659.500000	1.946000   
660.000000	2.332000   
660.500000	1.761000   
661.000000	1.643000   
661.500000	1.715000   
662.000000	2.178000   
662.500000	2.653000   
663.000000	2.240000   
663.500000	1.655000   
664.000000	1.921000   
664.500000	2.184000   
665.000000	1.784000   
665.500000	2.000000   
666.000000	1.430000   
666.500000	1.657000   
667.000000	2.031000   
667.500000	1.744000   
668.000000	1.646000   
668.500000	1.427000   
669.000000	1.955000   
669.500000	1.462000   
670.000000	1.367000   
670.500000	1.378000   
671.000000	1.821000   
671.500000	1.649000   
672.000000	1.560000   
672.500000	1.472000   
673.000000	1.524000   
673.500000	1.499000   
674.000000	1.553000   
674.500000	1.089000   
675.000000	1.511000   
675.500000	1.274000   
676.000000	1.390000   
676.500000	1.125000   
677.000000	0.889000   
677.500000	1.145000   
678.000000	1.238000   
678.500000	1.158000   
679.000000	1.298000   
679.500000	0.991000   
680.000000	0.893000   
680.500000	0.908000   
681.000000	0.890000   
681.500000	1.685000   
682.000000	0.948000   
682.500000	0.926000   
683.000000	1.164000   
683.500000	1.788000   
684.000000	0.778000   
684.500000	1.058000   
685.000000	1.088000   
685.500000	1.071000   
686.000000	0.822000   
686.500000	0.763000   
687.000000	0.714000   
687.500000	0.856000   
688.000000	0.781000   
688.500000	0.935000   
689.000000	1.068000   
689.500000	1.272000   
690.000000	0.829000   
690.500000	1.062000   
691.000000	0.709000   
691.500000	0.865000   
692.000000	1.212000   
692.500000	1.263000   
693.000000	1.350000   
693.500000	0.756000   
694.000000	1.009000   
694.500000	1.042000   
695.000000	0.477000   
695.500000	0.561000   
696.000000	1.022000   
696.500000	1.064000   
697.000000	0.856000   
697.500000	0.524000   
698.000000	0.882000   
698.500000	0.897000   
699.000000	0.871000   
699.500000	0.938999   
700.000000	0.802000   
700.500000	0.666000   

