PE FL                   SPECTRUM    ASCII       PEDS        1.60        
  -1
DMB025.SP
23/03/01
17:13:48.00
23/03/01
17:14:49.00


700.500000
1









LS50-B
415.00
2.50
2.50
SCAN
1
20
100
100
0
400
0
1
0
1
7
ON
700 415 
1 0 0
#HDR
-1
-1
#GR
NM
INT 
0.00002384185791015625
0.0
380.000000
0.500000
642
8
418.780000
-0.008000
#DATA
380.000000	0.000000   
380.500000	0.050000   
381.000000	0.096000   
381.500000	0.067000   
382.000000	0.327000   
382.500000	0.212000   
383.000000	0.168000   
383.500000	0.366000   
384.000000	0.051000   
384.500000	0.078000   
385.000000	0.226000   
385.500000	0.189000   
386.000000	0.207000   
386.500000	0.061000   
387.000000	0.320000   
387.500000	0.056000   
388.000000	0.470000   
388.500000	0.341000   
389.000000	0.290000   
389.500000	0.353000   
390.000000	-0.008000  
390.500000	0.200000   
391.000000	0.182000   
391.500000	0.247000   
392.000000	0.328000   
392.500000	0.156000   
393.000000	0.116000   
393.500000	0.424000   
394.000000	0.142000   
394.500000	0.301000   
395.000000	0.141000   
395.500000	0.232000   
396.000000	0.268000   
396.500000	0.378000   
397.000000	0.188000   
397.500000	0.407000   
398.000000	0.228000   
398.500000	0.139000   
399.000000	0.167000   
399.500000	0.067000   
400.000000	0.389000   
400.500000	0.514000   
401.000000	0.274000   
401.500000	0.179000   
402.000000	0.145000   
402.500000	0.167000   
403.000000	0.295000   
403.500000	0.132000   
404.000000	0.326000   
404.500000	0.256000   
405.000000	0.544000   
405.500000	0.110000   
406.000000	0.320000   
406.500000	0.415000   
407.000000	0.771000   
407.500000	0.235000   
408.000000	0.583000   
408.500000	0.751000   
409.000000	0.826000   
409.500000	2.472000   
410.000000	4.396000   
410.500000	8.198000   
411.000000	14.162000  
411.500000	19.346000  
412.000000	30.681000  
412.500000	43.774000  
413.000000	54.315000  
413.500000	66.301000  
414.000000	64.055000  
414.500000	60.849000  
415.000000	54.543000  
415.500000	44.102000  
416.000000	31.204000  
416.500000	21.752000  
417.000000	12.493000  
417.500000	7.683000   
418.000000	3.733000   
418.500000	2.004000   
419.000000	1.336000   
419.500000	0.937000   
420.000000	0.655000   
420.500000	0.887000   
421.000000	0.433000   
421.500000	0.539000   
422.000000	0.433000   
422.500000	0.475000   
423.000000	0.341000   
423.500000	0.551000   
424.000000	0.654000   
424.500000	0.454000   
425.000000	0.132000   
425.500000	0.598000   
426.000000	0.646000   
426.500000	0.309000   
427.000000	0.537000   
427.500000	0.398000   
428.000000	0.520000   
428.500000	0.343000   
429.000000	0.427000   
429.500000	0.540000   
430.000000	0.474000   
430.500000	0.501000   
431.000000	0.375000   
431.500000	0.503000   
432.000000	0.637000   
432.500000	0.619000   
433.000000	0.289000   
433.500000	0.539000   
434.000000	0.759000   
434.500000	0.688999   
435.000000	0.783000   
435.500000	0.586000   
436.000000	0.787000   
436.500000	0.587000   
437.000000	0.575000   
437.500000	0.657000   
438.000000	0.796000   
438.500000	0.480000   
439.000000	0.678000   
439.500000	0.855000   
440.000000	0.903000   
440.500000	1.062000   
441.000000	0.853000   
441.500000	0.454000   
442.000000	0.804000   
442.500000	0.536000   
443.000000	0.602000   
443.500000	1.486000   
444.000000	0.960000   
444.500000	0.996000   
445.000000	0.983000   
445.500000	1.188000   
446.000000	1.263000   
446.500000	1.437000   
447.000000	1.169000   
447.500000	1.182000   
448.000000	1.006000   
448.500000	1.047000   
449.000000	1.083000   
449.500000	2.387000   
450.000000	1.038000   
450.500000	1.564000   
451.000000	0.885000   
451.500000	1.249000   
452.000000	1.156000   
452.500000	1.073000   
453.000000	1.324000   
453.500000	1.761000   
454.000000	1.910000   
454.500000	1.563000   
455.000000	1.344000   
455.500000	1.039000   
456.000000	1.833000   
456.500000	2.616000   
457.000000	1.733000   
457.500000	1.266000   
458.000000	1.132000   
458.500000	1.460000   
459.000000	1.595000   
459.500000	1.194000   
460.000000	1.550000   
460.500000	1.926000   
461.000000	1.560000   
461.500000	2.518000   
462.000000	1.879000   
462.500000	1.703000   
463.000000	1.822000   
463.500000	1.781000   
464.000000	2.192000   
464.500000	1.939000   
465.000000	1.966000   
465.500000	1.789000   
466.000000	2.378000   
466.500000	1.739000   
467.000000	1.995000   
467.500000	1.421000   
468.000000	1.525000   
468.500000	1.642000   
469.000000	1.615000   
469.500000	2.017000   
470.000000	1.749000   
470.500000	2.142000   
471.000000	2.061000   
471.500000	2.166000   
472.000000	1.766000   
472.500000	2.133000   
473.000000	1.911000   
473.500000	2.570000   
474.000000	1.892000   
474.500000	2.451000   
475.000000	2.211000   
475.500000	2.022000   
476.000000	2.510000   
476.500000	2.562000   
477.000000	2.075000   
477.500000	2.902000   
478.000000	3.075000   
478.500000	2.664000   
479.000000	3.048000   
479.500000	3.174000   
480.000000	2.857000   
480.500000	3.765000   
481.000000	3.616000   
481.500000	3.808000   
482.000000	3.637000   
482.500000	4.930000   
483.000000	5.601000   
483.500000	4.175000   
484.000000	5.512000   
484.500000	5.780000   
485.000000	5.565000   
485.500000	6.183000   
486.000000	7.086000   
486.500000	7.435000   
487.000000	8.677000   
487.500000	8.507000   
488.000000	10.819000  
488.500000	11.167000  
489.000000	11.190000  
489.500000	11.450000  
490.000000	13.814000  
490.500000	13.963000  
491.000000	15.164000  
491.500000	17.656000  
492.000000	18.214000  
492.500000	21.248000  
493.000000	21.708000  
493.500000	23.513000  
494.000000	26.535000  
494.500000	29.236000  
495.000000	32.144000  
495.500000	35.882000  
496.000000	38.615000  
496.500000	45.054000  
497.000000	46.869000  
497.500000	51.733000  
498.000000	55.680000  
498.500000	62.880000  
499.000000	66.613000  
499.500000	74.641000  
500.000000	81.666000  
500.500000	89.559000  
501.000000	96.008000  
501.500000	101.347000 
502.000000	107.213000 
502.500000	117.524000 
503.000000	129.314000 
503.500000	135.206000 
504.000000	141.112000 
504.500000	162.101000 
505.000000	167.181000 
505.500000	175.616000 
506.000000	188.726000 
506.500000	198.118000 
507.000000	218.016000 
507.500000	233.247000 
508.000000	240.341000 
508.500000	247.072000 
509.000000	264.566000 
509.500000	274.313000 
510.000000	281.617000 
510.500000	298.475000 
511.000000	316.492000 
511.500000	315.915000 
512.000000	333.616000 
512.500000	342.479000 
513.000000	350.703000 
513.500000	359.881000 
514.000000	366.664000 
514.500000	379.853000 
515.000000	381.088000 
515.500000	383.966000 
516.000000	403.456000 
516.500000	406.803000 
517.000000	405.917000 
517.500000	411.184000 
518.000000	407.937000 
518.500000	410.991000 
519.000000	414.073000 
519.500000	418.780000 
520.000000	415.975000 
520.500000	408.331000 
521.000000	406.996000 
521.500000	406.104000 
522.000000	408.403000 
522.500000	394.672000 
523.000000	399.136000 
523.500000	391.214000 
524.000000	379.255000 
524.500000	388.218000 
525.000000	379.395000 
525.500000	384.364000 
526.000000	373.337000 
526.500000	370.937000 
527.000000	354.484000 
527.500000	364.599000 
528.000000	349.800000 
528.500000	347.519000 
529.000000	340.016000 
529.500000	331.684000 
530.000000	327.885000 
530.500000	323.805000 
531.000000	325.437000 
531.500000	304.615000 
532.000000	312.371000 
532.500000	304.320000 
533.000000	297.290000 
533.500000	284.561000 
534.000000	300.648000 
534.500000	286.262000 
535.000000	284.892000 
535.500000	274.816000 
536.000000	272.186000 
536.500000	268.631000 
537.000000	256.240000 
537.500000	260.697000 
538.000000	251.720000 
538.500000	250.547000 
539.000000	237.368000 
539.500000	238.895000 
540.000000	237.893000 
540.500000	228.431000 
541.000000	227.063000 
541.500000	227.489000 
542.000000	217.809000 
542.500000	221.531000 
543.000000	219.858000 
543.500000	202.578000 
544.000000	217.321000 
544.500000	207.066000 
545.000000	200.031000 
545.500000	198.462000 
546.000000	200.029000 
546.500000	194.698000 
547.000000	191.892000 
547.500000	184.792000 
548.000000	183.045000 
548.500000	184.889000 
549.000000	178.650000 
549.500000	178.425000 
550.000000	174.732000 
550.500000	171.662000 
551.000000	174.535000 
551.500000	167.530000 
552.000000	166.700000 
552.500000	168.876000 
553.000000	168.128000 
553.500000	156.013000 
554.000000	156.870000 
554.500000	152.526000 
555.000000	153.514000 
555.500000	157.211000 
556.000000	145.362000 
556.500000	145.195000 
557.000000	141.180000 
557.500000	134.416000 
558.000000	130.922000 
558.500000	132.867000 
559.000000	128.785000 
559.500000	125.221000 
560.000000	125.355000 
560.500000	126.993000 
561.000000	120.165000 
561.500000	121.112000 
562.000000	117.265000 
562.500000	115.587000 
563.000000	113.776000 
563.500000	111.588000 
564.000000	106.958000 
564.500000	107.221000 
565.000000	103.360000 
565.500000	102.378000 
566.000000	95.444999  
566.500000	98.280000  
567.000000	99.027000  
567.500000	93.281000  
568.000000	91.366000  
568.500000	86.852999  
569.000000	85.124000  
569.500000	85.406000  
570.000000	86.339000  
570.500000	83.422000  
571.000000	79.313000  
571.500000	82.562000  
572.000000	75.162000  
572.500000	72.139000  
573.000000	70.815000  
573.500000	71.807000  
574.000000	69.471999  
574.500000	66.824000  
575.000000	68.158000  
575.500000	68.146000  
576.000000	62.213000  
576.500000	62.090000  
577.000000	57.804000  
577.500000	55.546000  
578.000000	59.783000  
578.500000	58.635000  
579.000000	54.922000  
579.500000	54.046000  
580.000000	54.746000  
580.500000	51.008000  
581.000000	52.654000  
581.500000	53.352000  
582.000000	47.224000  
582.500000	45.863000  
583.000000	45.519000  
583.500000	48.574000  
584.000000	43.363000  
584.500000	39.478000  
585.000000	41.179000  
585.500000	41.297000  
586.000000	39.764000  
586.500000	40.141000  
587.000000	41.192000  
587.500000	39.171000  
588.000000	37.638000  
588.500000	34.285000  
589.000000	36.999000  
589.500000	36.354000  
590.000000	35.493000  
590.500000	34.848000  
591.000000	35.284000  
591.500000	33.512000  
592.000000	31.552000  
592.500000	30.126000  
593.000000	32.215000  
593.500000	31.414000  
594.000000	30.005000  
594.500000	29.571000  
595.000000	31.723000  
595.500000	29.209000  
596.000000	27.152000  
596.500000	27.922000  
597.000000	29.297000  
597.500000	27.602000  
598.000000	28.461000  
598.500000	26.871000  
599.000000	25.678000  
599.500000	25.650000  
600.000000	25.947000  
600.500000	25.184000  
601.000000	23.037000  
601.500000	22.351000  
602.000000	22.894000  
602.500000	22.713000  
603.000000	21.341000  
603.500000	21.754000  
604.000000	21.081000  
604.500000	20.630000  
605.000000	20.101000  
605.500000	20.934000  
606.000000	19.768000  
606.500000	20.035000  
607.000000	18.345000  
607.500000	20.633000  
608.000000	18.791000  
608.500000	18.948000  
609.000000	17.536000  
609.500000	17.623000  
610.000000	16.604000  
610.500000	16.121000  
611.000000	15.215000  
611.500000	16.026000  
612.000000	15.887000  
612.500000	14.938000  
613.000000	17.361000  
613.500000	15.509000  
614.000000	13.364000  
614.500000	13.824000  
615.000000	14.770000  
615.500000	18.034000  
616.000000	13.618000  
616.500000	14.319000  
617.000000	12.572000  
617.500000	12.562000  
618.000000	14.166000  
618.500000	13.275000  
619.000000	12.750000  
619.500000	11.421000  
620.000000	11.930000  
620.500000	11.849000  
621.000000	11.592000  
621.500000	10.995000  
622.000000	10.699000  
622.500000	10.648000  
623.000000	10.022000  
623.500000	9.624000   
624.000000	9.994000   
624.500000	9.638999   
625.000000	10.266000  
625.500000	8.885999   
626.000000	9.882999   
626.500000	9.326000   
627.000000	9.711000   
627.500000	7.876000   
628.000000	8.872999   
628.500000	8.797000   
629.000000	8.417000   
629.500000	6.910000   
630.000000	7.045000   
630.500000	6.294000   
631.000000	7.233000   
631.500000	7.570000   
632.000000	6.556000   
632.500000	7.051000   
633.000000	6.923000   
633.500000	6.253000   
634.000000	5.432000   
634.500000	5.626000   
635.000000	6.827000   
635.500000	6.500000   
636.000000	5.592000   
636.500000	6.404000   
637.000000	5.560000   
637.500000	4.965000   
638.000000	5.824000   
638.500000	5.287000   
639.000000	5.097000   
639.500000	5.715000   
640.000000	4.964000   
640.500000	4.349000   
641.000000	4.417000   
641.500000	5.353000   
642.000000	4.319000   
642.500000	3.755000   
643.000000	3.677000   
643.500000	4.144000   
644.000000	4.077000   
644.500000	3.863000   
645.000000	4.362000   
645.500000	4.512000   
646.000000	3.853000   
646.500000	3.500000   
647.000000	4.356000   
647.500000	3.243000   
648.000000	3.304000   
648.500000	3.207000   
649.000000	3.262000   
649.500000	3.969000   
650.000000	3.547000   
650.500000	3.201000   
651.000000	3.060000   
651.500000	2.073000   
652.000000	2.938000   
652.500000	2.783000   
653.000000	3.035000   
653.500000	2.517000   
654.000000	2.801000   
654.500000	3.171000   
655.000000	3.609000   
655.500000	2.123000   
656.000000	2.844000   
656.500000	2.495000   
657.000000	2.664000   
657.500000	2.536000   
658.000000	2.423000   
658.500000	2.318000   
659.000000	2.406000   
659.500000	2.378000   
660.000000	2.067000   
660.500000	2.540000   
661.000000	2.506000   
661.500000	1.421000   
662.000000	1.735000   
662.500000	2.087000   
663.000000	2.108000   
663.500000	2.303000   
664.000000	1.965000   
664.500000	2.252000   
665.000000	2.166000   
665.500000	1.769000   
666.000000	2.282000   
666.500000	2.211000   
667.000000	1.740000   
667.500000	2.422000   
668.000000	1.821000   
668.500000	1.546000   
669.000000	2.151000   
669.500000	2.129000   
670.000000	2.215000   
670.500000	1.527000   
671.000000	1.706000   
671.500000	1.798000   
672.000000	1.648000   
672.500000	1.457000   
673.000000	1.988000   
673.500000	1.559000   
674.000000	1.620000   
674.500000	1.511000   
675.000000	1.182000   
675.500000	1.810000   
676.000000	1.746000   
676.500000	1.402000   
677.000000	1.161000   
677.500000	1.508000   
678.000000	1.435000   
678.500000	1.437000   
679.000000	1.441000   
679.500000	1.432000   
680.000000	1.477000   
680.500000	1.103000   
681.000000	1.370000   
681.500000	0.968000   
682.000000	1.637000   
682.500000	1.137000   
683.000000	1.041000   
683.500000	0.825000   
684.000000	0.702000   
684.500000	1.184000   
685.000000	1.545000   
685.500000	1.292000   
686.000000	1.862000   
686.500000	1.266000   
687.000000	1.178000   
687.500000	1.002000   
688.000000	1.010000   
688.500000	1.022000   
689.000000	1.276000   
689.500000	0.614000   
690.000000	0.898000   
690.500000	1.083000   
691.000000	0.864000   
691.500000	0.789000   
692.000000	0.759000   
692.500000	0.937999   
693.000000	0.778000   
693.500000	0.577000   
694.000000	1.001000   
694.500000	0.859000   
695.000000	1.293000   
695.500000	0.739000   
696.000000	0.856000   
696.500000	0.940999   
697.000000	1.110000   
697.500000	0.595000   
698.000000	0.688999   
698.500000	0.611000   
699.000000	0.644000   
699.500000	0.995000   
700.000000	0.843000   
700.500000	0.691999   

