PE FL                   SPECTRUM    ASCII       PEDS        1.60        
  -1
DMB024.SP
23/03/01
17:11:47.00
23/03/01
17:12:48.00


700.500000
1









LS50-B
415.00
2.50
2.50
SCAN
1
20
100
100
0
400
0
1
0
1
7
ON
700 415 
1 0 0
#HDR
-1
-1
#GR
NM
INT 
0.00002384185791015625
0.0
380.000000
0.500000
642
8
434.679000
-0.150000
#DATA
380.000000	0.336000   
380.500000	0.206000   
381.000000	0.245000   
381.500000	0.057000   
382.000000	-0.037000  
382.500000	0.137000   
383.000000	0.065000   
383.500000	0.000000   
384.000000	0.143000   
384.500000	0.297000   
385.000000	0.399000   
385.500000	0.177000   
386.000000	-0.150000  
386.500000	0.156000   
387.000000	0.194000   
387.500000	0.179000   
388.000000	-0.003000  
388.500000	0.083000   
389.000000	0.381000   
389.500000	0.243000   
390.000000	0.332000   
390.500000	0.325000   
391.000000	0.339000   
391.500000	0.290000   
392.000000	0.379000   
392.500000	0.110000   
393.000000	0.306000   
393.500000	-0.101000  
394.000000	0.301000   
394.500000	0.301000   
395.000000	0.333000   
395.500000	-0.066000  
396.000000	0.330000   
396.500000	0.302000   
397.000000	0.176000   
397.500000	0.242000   
398.000000	0.258000   
398.500000	0.369000   
399.000000	0.330000   
399.500000	0.232000   
400.000000	-0.012000  
400.500000	0.247000   
401.000000	0.103000   
401.500000	0.234000   
402.000000	0.379000   
402.500000	0.301000   
403.000000	0.157000   
403.500000	0.265000   
404.000000	0.432000   
404.500000	0.191000   
405.000000	0.347000   
405.500000	0.356000   
406.000000	0.393000   
406.500000	0.277000   
407.000000	0.567999   
407.500000	0.550000   
408.000000	0.528000   
408.500000	0.865000   
409.000000	1.320000   
409.500000	3.157000   
410.000000	5.015000   
410.500000	9.327000   
411.000000	14.569000  
411.500000	23.721000  
412.000000	32.740000  
412.500000	45.557000  
413.000000	56.362000  
413.500000	60.010000  
414.000000	68.263000  
414.500000	63.443000  
415.000000	54.437000  
415.500000	45.701000  
416.000000	34.700000  
416.500000	20.550000  
417.000000	13.585000  
417.500000	8.045999   
418.000000	4.008000   
418.500000	2.228000   
419.000000	1.366000   
419.500000	0.667000   
420.000000	0.523000   
420.500000	0.618000   
421.000000	0.318000   
421.500000	0.362000   
422.000000	0.506000   
422.500000	0.465000   
423.000000	0.669000   
423.500000	0.285000   
424.000000	0.311000   
424.500000	0.289000   
425.000000	0.536000   
425.500000	0.055000   
426.000000	0.544000   
426.500000	0.486000   
427.000000	0.602000   
427.500000	0.404000   
428.000000	0.475000   
428.500000	0.222000   
429.000000	0.410000   
429.500000	0.556000   
430.000000	0.538000   
430.500000	0.466000   
431.000000	0.588000   
431.500000	0.608000   
432.000000	0.551000   
432.500000	0.575000   
433.000000	0.562000   
433.500000	0.560000   
434.000000	0.465000   
434.500000	0.579000   
435.000000	0.552000   
435.500000	0.571000   
436.000000	0.524000   
436.500000	0.722000   
437.000000	0.698000   
437.500000	0.623000   
438.000000	0.941999   
438.500000	0.971000   
439.000000	0.903000   
439.500000	0.672000   
440.000000	0.710000   
440.500000	1.010000   
441.000000	0.923000   
441.500000	0.288000   
442.000000	1.013000   
442.500000	0.975000   
443.000000	0.843000   
443.500000	1.137000   
444.000000	1.142000   
444.500000	1.025000   
445.000000	0.968000   
445.500000	1.325000   
446.000000	1.058000   
446.500000	0.903000   
447.000000	1.308000   
447.500000	1.122000   
448.000000	0.841000   
448.500000	1.163000   
449.000000	1.440000   
449.500000	1.310000   
450.000000	1.111000   
450.500000	1.381000   
451.000000	1.586000   
451.500000	1.467000   
452.000000	1.489000   
452.500000	1.392000   
453.000000	1.932000   
453.500000	1.627000   
454.000000	1.434000   
454.500000	1.805000   
455.000000	1.522000   
455.500000	1.146000   
456.000000	1.233000   
456.500000	1.491000   
457.000000	1.620000   
457.500000	2.304000   
458.000000	2.012000   
458.500000	1.429000   
459.000000	1.741000   
459.500000	1.784000   
460.000000	2.071000   
460.500000	2.237000   
461.000000	1.554000   
461.500000	2.207000   
462.000000	1.407000   
462.500000	2.143000   
463.000000	1.986000   
463.500000	2.413000   
464.000000	2.011000   
464.500000	2.134000   
465.000000	3.034000   
465.500000	2.620000   
466.000000	1.926000   
466.500000	2.212000   
467.000000	2.019000   
467.500000	1.579000   
468.000000	2.148000   
468.500000	1.837000   
469.000000	1.755000   
469.500000	2.411000   
470.000000	2.011000   
470.500000	1.551000   
471.000000	1.732000   
471.500000	2.321000   
472.000000	1.693000   
472.500000	2.151000   
473.000000	2.562000   
473.500000	2.468000   
474.000000	2.273000   
474.500000	2.116000   
475.000000	2.503000   
475.500000	2.625000   
476.000000	2.241000   
476.500000	3.007000   
477.000000	1.828000   
477.500000	3.347000   
478.000000	3.749000   
478.500000	3.241000   
479.000000	3.628000   
479.500000	3.311000   
480.000000	4.332000   
480.500000	4.377000   
481.000000	3.985000   
481.500000	4.415000   
482.000000	4.608000   
482.500000	4.972000   
483.000000	5.555000   
483.500000	5.198000   
484.000000	5.924000   
484.500000	6.182000   
485.000000	5.979000   
485.500000	7.395000   
486.000000	7.435000   
486.500000	7.901000   
487.000000	8.270000   
487.500000	7.243000   
488.000000	9.034000   
488.500000	10.320000  
489.000000	13.280000  
489.500000	11.310000  
490.000000	13.979000  
490.500000	14.979000  
491.000000	15.010000  
491.500000	20.349000  
492.000000	20.045000  
492.500000	20.762000  
493.000000	24.584000  
493.500000	24.165000  
494.000000	29.312000  
494.500000	30.800000  
495.000000	30.891000  
495.500000	35.750000  
496.000000	42.522000  
496.500000	43.997000  
497.000000	49.567000  
497.500000	51.890000  
498.000000	58.148000  
498.500000	64.026000  
499.000000	70.019000  
499.500000	75.741000  
500.000000	83.152000  
500.500000	88.557000  
501.000000	98.855000  
501.500000	103.427000 
502.000000	114.051000 
502.500000	120.554000 
503.000000	136.328000 
503.500000	140.220000 
504.000000	149.850000 
504.500000	159.939000 
505.000000	172.274000 
505.500000	177.164000 
506.000000	193.913000 
506.500000	206.930000 
507.000000	227.271000 
507.500000	236.204000 
508.000000	241.245000 
508.500000	253.664000 
509.000000	264.698000 
509.500000	287.704000 
510.000000	294.227000 
510.500000	310.395000 
511.000000	320.534000 
511.500000	327.185000 
512.000000	354.247000 
512.500000	354.817000 
513.000000	364.915000 
513.500000	365.694000 
514.000000	389.367000 
514.500000	391.787000 
515.000000	389.047000 
515.500000	390.519000 
516.000000	403.519000 
516.500000	405.332000 
517.000000	422.968000 
517.500000	417.281000 
518.000000	421.826000 
518.500000	414.964000 
519.000000	424.392000 
519.500000	430.080000 
520.000000	422.194000 
520.500000	426.143000 
521.000000	434.679000 
521.500000	428.777000 
522.000000	411.429000 
522.500000	421.315000 
523.000000	412.938000 
523.500000	405.711000 
524.000000	407.203000 
524.500000	397.677000 
525.000000	387.814000 
525.500000	382.568000 
526.000000	375.024000 
526.500000	379.121000 
527.000000	371.293000 
527.500000	362.538000 
528.000000	357.520000 
528.500000	349.241000 
529.000000	347.657000 
529.500000	330.783000 
530.000000	337.555000 
530.500000	332.923000 
531.000000	324.412000 
531.500000	322.460000 
532.000000	319.900000 
532.500000	312.706000 
533.000000	309.210000 
533.500000	310.822000 
534.000000	302.607000 
534.500000	298.149000 
535.000000	287.489000 
535.500000	278.735000 
536.000000	273.276000 
536.500000	269.704000 
537.000000	271.272000 
537.500000	270.079000 
538.000000	259.257000 
538.500000	249.092000 
539.000000	252.224000 
539.500000	248.464000 
540.000000	239.692000 
540.500000	234.458000 
541.000000	233.966000 
541.500000	237.485000 
542.000000	231.162000 
542.500000	226.738000 
543.000000	220.793000 
543.500000	210.950000 
544.000000	210.034000 
544.500000	213.059000 
545.000000	202.315000 
545.500000	205.854000 
546.000000	205.734000 
546.500000	207.876000 
547.000000	197.912000 
547.500000	193.685000 
548.000000	193.438000 
548.500000	182.818000 
549.000000	187.336000 
549.500000	181.359000 
550.000000	180.705000 
550.500000	176.870000 
551.000000	177.735000 
551.500000	175.205000 
552.000000	170.772000 
552.500000	166.048000 
553.000000	166.113000 
553.500000	161.348000 
554.000000	161.331000 
554.500000	155.741000 
555.000000	149.760000 
555.500000	153.875000 
556.000000	150.242000 
556.500000	143.934000 
557.000000	148.701000 
557.500000	137.524000 
558.000000	138.641000 
558.500000	136.908000 
559.000000	136.403000 
559.500000	137.827000 
560.000000	129.497000 
560.500000	126.291000 
561.000000	126.254000 
561.500000	127.819000 
562.000000	120.639000 
562.500000	114.256000 
563.000000	113.088000 
563.500000	111.775000 
564.000000	113.303000 
564.500000	105.085000 
565.000000	108.401000 
565.500000	102.856000 
566.000000	103.087000 
566.500000	101.758000 
567.000000	100.678000 
567.500000	97.281000  
568.000000	95.197999  
568.500000	94.554000  
569.000000	90.721999  
569.500000	88.185000  
570.000000	85.828000  
570.500000	85.462000  
571.000000	82.669000  
571.500000	82.205000  
572.000000	76.936000  
572.500000	73.793000  
573.000000	79.444000  
573.500000	71.992999  
574.000000	69.272000  
574.500000	67.885000  
575.000000	68.128000  
575.500000	65.337000  
576.000000	63.680000  
576.500000	61.644000  
577.000000	61.823000  
577.500000	55.426000  
578.000000	59.663000  
578.500000	57.705000  
579.000000	57.713000  
579.500000	54.824000  
580.000000	51.803000  
580.500000	50.431000  
581.000000	51.037000  
581.500000	52.743000  
582.000000	48.056000  
582.500000	46.438000  
583.000000	48.162000  
583.500000	47.323000  
584.000000	48.801000  
584.500000	45.959000  
585.000000	44.680000  
585.500000	44.875000  
586.000000	42.900000  
586.500000	44.490000  
587.000000	42.450000  
587.500000	39.112000  
588.000000	40.542000  
588.500000	40.880000  
589.000000	38.674000  
589.500000	37.725000  
590.000000	36.052000  
590.500000	36.570000  
591.000000	34.125000  
591.500000	34.932000  
592.000000	34.396000  
592.500000	31.698000  
593.000000	31.667000  
593.500000	34.226000  
594.000000	32.042000  
594.500000	30.591000  
595.000000	29.865000  
595.500000	28.723000  
596.000000	29.679000  
596.500000	29.504000  
597.000000	27.250000  
597.500000	29.147000  
598.000000	26.399000  
598.500000	25.496000  
599.000000	26.925000  
599.500000	26.128000  
600.000000	25.397000  
600.500000	24.303000  
601.000000	21.854000  
601.500000	25.480000  
602.000000	24.422000  
602.500000	21.623000  
603.000000	21.404000  
603.500000	22.719000  
604.000000	22.745000  
604.500000	21.803000  
605.000000	20.818000  
605.500000	17.496000  
606.000000	18.769000  
606.500000	19.172000  
607.000000	18.128000  
607.500000	18.694000  
608.000000	19.457000  
608.500000	18.901000  
609.000000	17.895000  
609.500000	16.515000  
610.000000	16.822000  
610.500000	17.381000  
611.000000	17.416000  
611.500000	16.244000  
612.000000	15.843000  
612.500000	17.338000  
613.000000	16.958000  
613.500000	15.731000  
614.000000	14.401000  
614.500000	14.139000  
615.000000	14.202000  
615.500000	13.085000  
616.000000	13.580000  
616.500000	12.943000  
617.000000	13.228000  
617.500000	14.321000  
618.000000	13.633000  
618.500000	12.772000  
619.000000	13.479000  
619.500000	12.929000  
620.000000	11.708000  
620.500000	12.458000  
621.000000	12.008000  
621.500000	11.763000  
622.000000	11.836000  
622.500000	11.057000  
623.000000	11.116000  
623.500000	10.077000  
624.000000	9.733000   
624.500000	9.634000   
625.000000	10.173000  
625.500000	8.661000   
626.000000	9.198000   
626.500000	9.117000   
627.000000	9.468000   
627.500000	7.782000   
628.000000	8.552000   
628.500000	8.853000   
629.000000	7.963000   
629.500000	7.924000   
630.000000	7.509000   
630.500000	9.031000   
631.000000	7.289000   
631.500000	7.301000   
632.000000	6.563000   
632.500000	7.506000   
633.000000	7.720000   
633.500000	7.227000   
634.000000	5.478000   
634.500000	7.293000   
635.000000	6.981000   
635.500000	6.042000   
636.000000	6.704000   
636.500000	5.914000   
637.000000	5.468000   
637.500000	6.548000   
638.000000	5.379000   
638.500000	5.177000   
639.000000	6.017000   
639.500000	4.963000   
640.000000	4.676000   
640.500000	4.538000   
641.000000	4.371000   
641.500000	4.244000   
642.000000	4.709000   
642.500000	4.103000   
643.000000	4.367000   
643.500000	4.344000   
644.000000	4.783000   
644.500000	4.548000   
645.000000	4.042000   
645.500000	3.544000   
646.000000	4.340000   
646.500000	3.532000   
647.000000	3.584000   
647.500000	3.566000   
648.000000	3.270000   
648.500000	3.255000   
649.000000	3.201000   
649.500000	3.429000   
650.000000	3.380000   
650.500000	2.797000   
651.000000	2.827000   
651.500000	2.896000   
652.000000	2.603000   
652.500000	2.724000   
653.000000	2.891000   
653.500000	3.898000   
654.000000	2.830000   
654.500000	2.879000   
655.000000	3.317000   
655.500000	2.733000   
656.000000	2.714000   
656.500000	3.056000   
657.000000	3.217000   
657.500000	2.639000   
658.000000	2.552000   
658.500000	2.505000   
659.000000	2.204000   
659.500000	2.759000   
660.000000	2.673000   
660.500000	2.483000   
661.000000	2.626000   
661.500000	2.275000   
662.000000	2.184000   
662.500000	2.123000   
663.000000	1.788000   
663.500000	1.989000   
664.000000	2.124000   
664.500000	2.072000   
665.000000	2.126000   
665.500000	2.513000   
666.000000	2.233000   
666.500000	2.032000   
667.000000	1.772000   
667.500000	2.275000   
668.000000	1.921000   
668.500000	1.772000   
669.000000	1.544000   
669.500000	2.850000   
670.000000	1.851000   
670.500000	1.749000   
671.000000	1.886000   
671.500000	1.988000   
672.000000	1.740000   
672.500000	1.568000   
673.000000	1.809000   
673.500000	1.348000   
674.000000	1.343000   
674.500000	1.789000   
675.000000	1.544000   
675.500000	1.521000   
676.000000	1.187000   
676.500000	1.423000   
677.000000	1.540000   
677.500000	1.186000   
678.000000	1.103000   
678.500000	0.924000   
679.000000	1.734000   
679.500000	1.461000   
680.000000	1.286000   
680.500000	1.122000   
681.000000	1.271000   
681.500000	1.752000   
682.000000	1.303000   
682.500000	1.112000   
683.000000	1.362000   
683.500000	1.189000   
684.000000	1.358000   
684.500000	1.322000   
685.000000	1.231000   
685.500000	1.363000   
686.000000	1.168000   
686.500000	1.241000   
687.000000	1.249000   
687.500000	1.204000   
688.000000	1.124000   
688.500000	1.210000   
689.000000	0.960000   
689.500000	1.276000   
690.000000	1.150000   
690.500000	1.042000   
691.000000	0.994000   
691.500000	0.796000   
692.000000	1.082000   
692.500000	1.055000   
693.000000	1.153000   
693.500000	0.603000   
694.000000	1.228000   
694.500000	1.107000   
695.000000	1.098000   
695.500000	0.834000   
696.000000	1.080000   
696.500000	1.024000   
697.000000	0.849000   
697.500000	0.689999   
698.000000	0.954000   
698.500000	0.909000   
699.000000	0.845000   
699.500000	0.541000   
700.000000	0.782000   
700.500000	1.022000   

