PE FL                   SPECTRUM    ASCII       PEDS        1.60        
  -1
DMB005.SP
23/03/01
16:08:37.00
23/03/01
16:09:38.00


700.500000
1









LS50-B
415.00
2.50
2.50
SCAN
1
20
100
100
0
400
0
1
0
1
7
ON
700 415 
1 0 0
#HDR
-1
-1
#GR
NM
INT 
0.00002384185791015625
0.0
380.000000
0.500000
642
8
137.743000
-0.289000
#DATA
380.000000	0.208000   
380.500000	0.099000   
381.000000	0.027000   
381.500000	0.261000   
382.000000	0.064000   
382.500000	0.000000   
383.000000	0.066000   
383.500000	0.111000   
384.000000	0.055000   
384.500000	0.110000   
385.000000	0.000000   
385.500000	0.187000   
386.000000	0.089000   
386.500000	0.010000   
387.000000	0.084000   
387.500000	-0.086999  
388.000000	0.168000   
388.500000	0.055000   
389.000000	0.038000   
389.500000	0.184000   
390.000000	0.089000   
390.500000	0.044000   
391.000000	0.117000   
391.500000	-0.011000  
392.000000	0.059000   
392.500000	0.167000   
393.000000	0.090000   
393.500000	0.022000   
394.000000	0.160000   
394.500000	0.099000   
395.000000	0.272000   
395.500000	0.154000   
396.000000	0.000000   
396.500000	0.044000   
397.000000	0.105000   
397.500000	-0.021000  
398.000000	0.086999   
398.500000	-0.011000  
399.000000	0.123000   
399.500000	0.089000   
400.000000	-0.201000  
400.500000	0.136000   
401.000000	0.150000   
401.500000	0.282000   
402.000000	0.197000   
402.500000	0.182000   
403.000000	0.329000   
403.500000	0.275000   
404.000000	0.260000   
404.500000	0.109000   
405.000000	0.327000   
405.500000	0.154000   
406.000000	0.213000   
406.500000	0.324000   
407.000000	0.472000   
407.500000	0.532000   
408.000000	0.844000   
408.500000	1.262000   
409.000000	2.060000   
409.500000	4.154000   
410.000000	8.779999   
410.500000	16.438000  
411.000000	27.252000  
411.500000	43.906000  
412.000000	67.187000  
412.500000	91.154000  
413.000000	116.028000 
413.500000	131.920000 
414.000000	137.743000 
414.500000	128.009000 
415.000000	115.636000 
415.500000	92.587000  
416.000000	65.400000  
416.500000	42.897000  
417.000000	25.362000  
417.500000	14.291000  
418.000000	6.780000   
418.500000	3.595000   
419.000000	1.636000   
419.500000	1.255000   
420.000000	0.755000   
420.500000	0.388000   
421.000000	0.485000   
421.500000	0.639000   
422.000000	0.506000   
422.500000	0.373000   
423.000000	0.360000   
423.500000	0.595000   
424.000000	0.253000   
424.500000	0.229000   
425.000000	0.126000   
425.500000	0.176000   
426.000000	0.319000   
426.500000	0.415000   
427.000000	0.286000   
427.500000	0.304000   
428.000000	0.365000   
428.500000	0.425000   
429.000000	0.391000   
429.500000	0.000000   
430.000000	0.085000   
430.500000	0.137000   
431.000000	0.209000   
431.500000	0.285000   
432.000000	0.133000   
432.500000	0.056000   
433.000000	-0.005000  
433.500000	0.393000   
434.000000	0.494000   
434.500000	0.290000   
435.000000	0.226000   
435.500000	0.396000   
436.000000	0.157000   
436.500000	0.082000   
437.000000	0.178000   
437.500000	0.616000   
438.000000	0.349000   
438.500000	0.148000   
439.000000	0.482000   
439.500000	0.534000   
440.000000	0.247000   
440.500000	0.267000   
441.000000	0.262000   
441.500000	0.332000   
442.000000	0.387000   
442.500000	0.477000   
443.000000	0.436000   
443.500000	0.567999   
444.000000	0.641000   
444.500000	0.206000   
445.000000	0.376000   
445.500000	0.372000   
446.000000	0.701000   
446.500000	0.531000   
447.000000	0.429000   
447.500000	0.462000   
448.000000	0.771000   
448.500000	0.709000   
449.000000	0.938999   
449.500000	0.660000   
450.000000	0.804000   
450.500000	0.567999   
451.000000	0.746000   
451.500000	0.532000   
452.000000	0.308000   
452.500000	0.566999   
453.000000	0.680000   
453.500000	0.667000   
454.000000	0.533000   
454.500000	0.561000   
455.000000	0.675000   
455.500000	0.650000   
456.000000	0.667000   
456.500000	0.603000   
457.000000	0.963000   
457.500000	0.928000   
458.000000	0.848000   
458.500000	1.041000   
459.000000	0.812000   
459.500000	0.888000   
460.000000	0.697000   
460.500000	0.651000   
461.000000	1.209000   
461.500000	0.749000   
462.000000	0.879000   
462.500000	1.165000   
463.000000	1.153000   
463.500000	0.887000   
464.000000	0.749000   
464.500000	0.807000   
465.000000	1.106000   
465.500000	1.174000   
466.000000	1.207000   
466.500000	0.644000   
467.000000	1.329000   
467.500000	0.974000   
468.000000	1.254000   
468.500000	1.323000   
469.000000	1.343000   
469.500000	1.390000   
470.000000	0.955000   
470.500000	0.873000   
471.000000	1.057000   
471.500000	1.527000   
472.000000	1.148000   
472.500000	1.242000   
473.000000	1.644000   
473.500000	1.117000   
474.000000	1.211000   
474.500000	1.724000   
475.000000	2.558000   
475.500000	1.655000   
476.000000	1.668000   
476.500000	1.261000   
477.000000	1.767000   
477.500000	1.690000   
478.000000	2.614000   
478.500000	2.064000   
479.000000	2.259000   
479.500000	1.696000   
480.000000	1.842000   
480.500000	2.637000   
481.000000	3.203000   
481.500000	2.769000   
482.000000	2.864000   
482.500000	3.071000   
483.000000	3.146000   
483.500000	4.231000   
484.000000	4.779000   
484.500000	4.458000   
485.000000	5.053000   
485.500000	4.832000   
486.000000	5.388000   
486.500000	6.629000   
487.000000	6.476000   
487.500000	7.914000   
488.000000	7.663000   
488.500000	7.939000   
489.000000	8.863000   
489.500000	9.667000   
490.000000	12.790000  
490.500000	11.355000  
491.000000	10.663000  
491.500000	15.490000  
492.000000	14.540000  
492.500000	15.940000  
493.000000	17.026000  
493.500000	20.549000  
494.000000	20.886000  
494.500000	21.397000  
495.000000	21.264000  
495.500000	24.653000  
496.000000	26.707000  
496.500000	27.045000  
497.000000	29.005000  
497.500000	31.534000  
498.000000	32.642000  
498.500000	33.926000  
499.000000	36.977000  
499.500000	38.278000  
500.000000	40.750000  
500.500000	43.057000  
501.000000	45.328000  
501.500000	47.377000  
502.000000	49.413000  
502.500000	51.650000  
503.000000	54.386000  
503.500000	53.975000  
504.000000	54.499000  
504.500000	56.724000  
505.000000	62.220000  
505.500000	59.562000  
506.000000	59.358000  
506.500000	60.856000  
507.000000	63.265000  
507.500000	62.213000  
508.000000	64.864000  
508.500000	66.771000  
509.000000	67.334000  
509.500000	66.407000  
510.000000	66.434000  
510.500000	65.209000  
511.000000	67.078000  
511.500000	69.899000  
512.000000	65.249000  
512.500000	67.154000  
513.000000	69.959000  
513.500000	66.884000  
514.000000	67.183000  
514.500000	68.206000  
515.000000	64.956999  
515.500000	67.565000  
516.000000	64.200000  
516.500000	65.744000  
517.000000	63.963000  
517.500000	58.496000  
518.000000	60.645000  
518.500000	60.950000  
519.000000	59.905000  
519.500000	59.693000  
520.000000	56.549000  
520.500000	55.632000  
521.000000	53.926000  
521.500000	50.428000  
522.000000	54.523000  
522.500000	53.643000  
523.000000	51.999000  
523.500000	50.087000  
524.000000	49.632000  
524.500000	47.639000  
525.000000	47.141000  
525.500000	42.946000  
526.000000	43.870000  
526.500000	43.713000  
527.000000	44.854000  
527.500000	45.625000  
528.000000	40.395000  
528.500000	39.019000  
529.000000	36.436000  
529.500000	36.644000  
530.000000	37.911000  
530.500000	37.814000  
531.000000	36.852000  
531.500000	37.538000  
532.000000	35.294000  
532.500000	32.763000  
533.000000	32.194000  
533.500000	31.746000  
534.000000	28.220000  
534.500000	29.295000  
535.000000	29.085000  
535.500000	29.952000  
536.000000	29.154000  
536.500000	29.308000  
537.000000	26.757000  
537.500000	25.300000  
538.000000	26.134000  
538.500000	25.872000  
539.000000	24.806000  
539.500000	22.710000  
540.000000	23.842000  
540.500000	25.011000  
541.000000	24.734000  
541.500000	22.115000  
542.000000	25.065000  
542.500000	22.181000  
543.000000	23.074000  
543.500000	20.026000  
544.000000	20.476000  
544.500000	20.636000  
545.000000	21.435000  
545.500000	21.029000  
546.000000	19.187000  
546.500000	19.397000  
547.000000	19.139000  
547.500000	18.613000  
548.000000	18.778000  
548.500000	17.713000  
549.000000	17.474000  
549.500000	17.259000  
550.000000	17.285000  
550.500000	17.182000  
551.000000	15.784000  
551.500000	17.696000  
552.000000	15.781000  
552.500000	15.975000  
553.000000	15.460000  
553.500000	14.990000  
554.000000	15.593000  
554.500000	14.948000  
555.000000	13.473000  
555.500000	13.590000  
556.000000	14.072000  
556.500000	14.667000  
557.000000	14.830000  
557.500000	13.608000  
558.000000	12.789000  
558.500000	12.347000  
559.000000	12.438000  
559.500000	13.891000  
560.000000	12.556000  
560.500000	12.838000  
561.000000	12.921000  
561.500000	11.299000  
562.000000	12.438000  
562.500000	11.338000  
563.000000	10.754000  
563.500000	11.287000  
564.000000	11.326000  
564.500000	10.469000  
565.000000	9.516999   
565.500000	11.146000  
566.000000	9.145000   
566.500000	9.303000   
567.000000	9.048000   
567.500000	9.980000   
568.000000	9.875999   
568.500000	8.941000   
569.000000	9.345000   
569.500000	7.629000   
570.000000	8.529000   
570.500000	7.555000   
571.000000	7.671000   
571.500000	7.232000   
572.000000	8.359000   
572.500000	7.198000   
573.000000	7.406000   
573.500000	6.234000   
574.000000	6.942000   
574.500000	6.289000   
575.000000	7.417000   
575.500000	6.035000   
576.000000	6.265000   
576.500000	6.730000   
577.000000	5.820000   
577.500000	6.162000   
578.000000	6.822000   
578.500000	5.920000   
579.000000	5.709000   
579.500000	6.975000   
580.000000	5.486000   
580.500000	4.946000   
581.000000	5.454000   
581.500000	5.015000   
582.000000	5.320000   
582.500000	4.608000   
583.000000	4.396000   
583.500000	4.890000   
584.000000	4.571000   
584.500000	4.807000   
585.000000	5.490000   
585.500000	4.873000   
586.000000	4.062000   
586.500000	3.901000   
587.000000	4.346000   
587.500000	3.864000   
588.000000	4.533000   
588.500000	4.017000   
589.000000	3.738000   
589.500000	3.515000   
590.000000	3.283000   
590.500000	3.522000   
591.000000	3.511000   
591.500000	3.593000   
592.000000	3.045000   
592.500000	3.471000   
593.000000	3.081000   
593.500000	3.793000   
594.000000	3.612000   
594.500000	3.335000   
595.000000	2.865000   
595.500000	3.442000   
596.000000	3.738000   
596.500000	3.568000   
597.000000	2.722000   
597.500000	3.053000   
598.000000	3.285000   
598.500000	3.228000   
599.000000	2.822000   
599.500000	3.101000   
600.000000	2.328000   
600.500000	2.795000   
601.000000	2.707000   
601.500000	1.359000   
602.000000	2.788000   
602.500000	2.832000   
603.000000	1.840000   
603.500000	2.359000   
604.000000	2.219000   
604.500000	2.409000   
605.000000	2.547000   
605.500000	2.303000   
606.000000	2.373000   
606.500000	2.314000   
607.000000	2.436000   
607.500000	2.260000   
608.000000	2.112000   
608.500000	2.221000   
609.000000	2.283000   
609.500000	2.533000   
610.000000	2.139000   
610.500000	2.027000   
611.000000	1.698000   
611.500000	1.680000   
612.000000	1.899000   
612.500000	1.925000   
613.000000	1.916000   
613.500000	1.849000   
614.000000	2.177000   
614.500000	1.864000   
615.000000	1.596000   
615.500000	1.935000   
616.000000	1.236000   
616.500000	1.530000   
617.000000	1.467000   
617.500000	1.374000   
618.000000	1.214000   
618.500000	1.464000   
619.000000	1.516000   
619.500000	0.909000   
620.000000	1.601000   
620.500000	1.350000   
621.000000	1.383000   
621.500000	1.569000   
622.000000	1.566000   
622.500000	1.219000   
623.000000	1.581000   
623.500000	1.028000   
624.000000	1.633000   
624.500000	1.377000   
625.000000	1.345000   
625.500000	0.677000   
626.000000	0.998000   
626.500000	1.000000   
627.000000	0.963000   
627.500000	0.881000   
628.000000	0.863000   
628.500000	0.910000   
629.000000	1.128000   
629.500000	0.991000   
630.000000	1.157000   
630.500000	1.051000   
631.000000	0.770000   
631.500000	1.111000   
632.000000	0.999000   
632.500000	0.806000   
633.000000	0.757000   
633.500000	1.039000   
634.000000	0.577000   
634.500000	0.711000   
635.000000	0.850000   
635.500000	0.900000   
636.000000	0.739000   
636.500000	0.632000   
637.000000	0.637000   
637.500000	0.671000   
638.000000	1.107000   
638.500000	0.876000   
639.000000	0.801000   
639.500000	0.830000   
640.000000	0.601000   
640.500000	0.680000   
641.000000	0.688999   
641.500000	0.825000   
642.000000	0.438000   
642.500000	0.512000   
643.000000	0.633000   
643.500000	0.747000   
644.000000	0.639000   
644.500000	0.641000   
645.000000	0.695000   
645.500000	0.457000   
646.000000	0.646000   
646.500000	0.565999   
647.000000	0.563999   
647.500000	0.318000   
648.000000	0.435000   
648.500000	0.456000   
649.000000	0.344000   
649.500000	0.532000   
650.000000	0.471000   
650.500000	0.297000   
651.000000	0.529000   
651.500000	0.567999   
652.000000	0.525000   
652.500000	0.350000   
653.000000	0.733000   
653.500000	0.758000   
654.000000	0.301000   
654.500000	0.675000   
655.000000	0.472000   
655.500000	0.284000   
656.000000	0.181000   
656.500000	0.281000   
657.000000	0.307000   
657.500000	0.401000   
658.000000	0.413000   
658.500000	0.250000   
659.000000	0.394000   
659.500000	0.452000   
660.000000	0.270000   
660.500000	0.149000   
661.000000	0.254000   
661.500000	0.563999   
662.000000	0.485000   
662.500000	0.301000   
663.000000	0.566999   
663.500000	0.619000   
664.000000	0.406000   
664.500000	0.420000   
665.000000	0.315000   
665.500000	0.415000   
666.000000	0.376000   
666.500000	0.451000   
667.000000	0.354000   
667.500000	0.289000   
668.000000	0.211000   
668.500000	0.281000   
669.000000	0.173000   
669.500000	0.285000   
670.000000	0.389000   
670.500000	0.304000   
671.000000	0.353000   
671.500000	0.399000   
672.000000	0.288000   
672.500000	0.305000   
673.000000	0.276000   
673.500000	0.463000   
674.000000	0.064000   
674.500000	0.276000   
675.000000	0.198000   
675.500000	0.264000   
676.000000	0.089000   
676.500000	0.187000   
677.000000	0.251000   
677.500000	0.172000   
678.000000	0.348000   
678.500000	0.138000   
679.000000	0.173000   
679.500000	0.513000   
680.000000	0.421000   
680.500000	0.338000   
681.000000	0.250000   
681.500000	-0.022000  
682.000000	0.355000   
682.500000	0.225000   
683.000000	0.327000   
683.500000	0.174000   
684.000000	0.186000   
684.500000	0.299000   
685.000000	0.267000   
685.500000	0.221000   
686.000000	0.235000   
686.500000	0.234000   
687.000000	0.364000   
687.500000	0.087999   
688.000000	0.166000   
688.500000	0.416000   
689.000000	0.238000   
689.500000	0.265000   
690.000000	0.349000   
690.500000	0.222000   
691.000000	0.238000   
691.500000	0.398000   
692.000000	0.339000   
692.500000	0.338000   
693.000000	0.198000   
693.500000	0.153000   
694.000000	0.353000   
694.500000	0.366000   
695.000000	0.246000   
695.500000	0.000000   
696.000000	0.341000   
696.500000	0.276000   
697.000000	0.089000   
697.500000	0.133000   
698.000000	0.302000   
698.500000	0.162000   
699.000000	0.207000   
699.500000	0.331000   
700.000000	0.021000   
700.500000	-0.289000  

