PE FL                   SPECTRUM    ASCII       PEDS        1.60        
  -1
DMB012.SP
23/03/01
16:33:33.00
23/03/01
16:34:35.00


700.500000
1









LS50-B
415.00
2.50
2.50
SCAN
1
20
100
100
0
400
0
1
0
1
7
ON
700 415 
1 0 0
#HDR
-1
-1
#GR
NM
INT 
0.00002384185791015625
0.0
380.000000
0.500000
642
8
588.151000
-0.044000
#DATA
380.000000	0.175000   
380.500000	0.427000   
381.000000	0.292000   
381.500000	0.309000   
382.000000	0.446000   
382.500000	0.201000   
383.000000	0.099000   
383.500000	0.361000   
384.000000	0.373000   
384.500000	0.232000   
385.000000	0.126000   
385.500000	0.156000   
386.000000	0.150000   
386.500000	0.122000   
387.000000	0.313000   
387.500000	0.314000   
388.000000	0.231000   
388.500000	0.342000   
389.000000	0.171000   
389.500000	0.292000   
390.000000	0.359000   
390.500000	0.364000   
391.000000	0.152000   
391.500000	0.245000   
392.000000	0.244000   
392.500000	0.390000   
393.000000	0.618000   
393.500000	0.154000   
394.000000	0.055000   
394.500000	0.054000   
395.000000	0.365000   
395.500000	0.368000   
396.000000	0.154000   
396.500000	0.094000   
397.000000	0.116000   
397.500000	0.000000   
398.000000	0.318000   
398.500000	0.358000   
399.000000	0.261000   
399.500000	-0.044000  
400.000000	0.154000   
400.500000	0.077000   
401.000000	0.253000   
401.500000	0.368000   
402.000000	0.544000   
402.500000	0.469000   
403.000000	0.509000   
403.500000	0.056000   
404.000000	0.387000   
404.500000	0.282000   
405.000000	0.277000   
405.500000	0.179000   
406.000000	0.411000   
406.500000	0.256000   
407.000000	0.806000   
407.500000	0.110000   
408.000000	0.563999   
408.500000	1.188000   
409.000000	1.553000   
409.500000	4.542000   
410.000000	6.497000   
410.500000	11.840000  
411.000000	20.013000  
411.500000	34.844000  
412.000000	50.672000  
412.500000	69.620000  
413.000000	87.435000  
413.500000	102.189000 
414.000000	105.281000 
414.500000	101.125000 
415.000000	85.468999  
415.500000	72.749000  
416.000000	54.279000  
416.500000	32.974000  
417.000000	20.627000  
417.500000	11.735000  
418.000000	6.333000   
418.500000	3.292000   
419.000000	1.777000   
419.500000	1.069000   
420.000000	0.694000   
420.500000	0.942999   
421.000000	0.765000   
421.500000	0.417000   
422.000000	0.439000   
422.500000	0.451000   
423.000000	0.436000   
423.500000	0.444000   
424.000000	0.591000   
424.500000	0.661000   
425.000000	0.338000   
425.500000	1.031000   
426.000000	0.608000   
426.500000	0.489000   
427.000000	0.615000   
427.500000	0.642000   
428.000000	0.578000   
428.500000	0.595000   
429.000000	0.358000   
429.500000	0.680000   
430.000000	0.702000   
430.500000	0.498000   
431.000000	0.702000   
431.500000	0.802000   
432.000000	0.792000   
432.500000	0.690999   
433.000000	0.689999   
433.500000	0.792000   
434.000000	0.781000   
434.500000	0.872000   
435.000000	0.788000   
435.500000	0.826000   
436.000000	0.788000   
436.500000	0.871000   
437.000000	0.813999   
437.500000	1.020000   
438.000000	0.654000   
438.500000	0.712000   
439.000000	1.130000   
439.500000	1.313000   
440.000000	1.391000   
440.500000	1.235000   
441.000000	1.309000   
441.500000	1.296000   
442.000000	1.582000   
442.500000	1.135000   
443.000000	1.098000   
443.500000	1.745000   
444.000000	1.112000   
444.500000	1.724000   
445.000000	1.479000   
445.500000	1.925000   
446.000000	1.919000   
446.500000	1.823000   
447.000000	1.485000   
447.500000	1.872000   
448.000000	1.807000   
448.500000	1.375000   
449.000000	2.269000   
449.500000	2.425000   
450.000000	1.944000   
450.500000	1.961000   
451.000000	1.729000   
451.500000	1.753000   
452.000000	2.127000   
452.500000	2.661000   
453.000000	2.095000   
453.500000	2.150000   
454.000000	2.103000   
454.500000	2.346000   
455.000000	2.607000   
455.500000	2.340000   
456.000000	2.114000   
456.500000	2.692000   
457.000000	2.412000   
457.500000	2.193000   
458.000000	2.682000   
458.500000	2.485000   
459.000000	2.574000   
459.500000	2.345000   
460.000000	2.499000   
460.500000	2.221000   
461.000000	2.734000   
461.500000	3.483000   
462.000000	2.558000   
462.500000	3.156000   
463.000000	2.601000   
463.500000	2.426000   
464.000000	3.230000   
464.500000	3.151000   
465.000000	3.477000   
465.500000	3.583000   
466.000000	2.498000   
466.500000	2.400000   
467.000000	3.166000   
467.500000	3.524000   
468.000000	2.587000   
468.500000	3.789000   
469.000000	3.221000   
469.500000	3.087000   
470.000000	3.989000   
470.500000	2.979000   
471.000000	3.237000   
471.500000	3.501000   
472.000000	3.055000   
472.500000	3.288000   
473.000000	4.095000   
473.500000	3.575000   
474.000000	3.701000   
474.500000	3.510000   
475.000000	4.234000   
475.500000	4.012000   
476.000000	4.199000   
476.500000	3.928000   
477.000000	4.597000   
477.500000	4.282000   
478.000000	4.524000   
478.500000	4.891000   
479.000000	5.533000   
479.500000	5.726000   
480.000000	5.696000   
480.500000	5.991000   
481.000000	5.996000   
481.500000	7.038000   
482.000000	8.422000   
482.500000	8.423000   
483.000000	8.662000   
483.500000	9.997999   
484.000000	9.893000   
484.500000	11.015000  
485.000000	12.095000  
485.500000	14.470000  
486.000000	14.030000  
486.500000	13.700000  
487.000000	15.813000  
487.500000	17.271000  
488.000000	19.055000  
488.500000	19.923000  
489.000000	21.401000  
489.500000	22.706000  
490.000000	24.846000  
490.500000	26.506000  
491.000000	30.598000  
491.500000	33.185000  
492.000000	36.291000  
492.500000	39.067000  
493.000000	43.753000  
493.500000	46.633000  
494.000000	48.366000  
494.500000	53.342000  
495.000000	61.283000  
495.500000	67.042000  
496.000000	70.919000  
496.500000	77.551000  
497.000000	87.548000  
497.500000	89.691000  
498.000000	96.842000  
498.500000	110.092000 
499.000000	120.205000 
499.500000	123.557000 
500.000000	137.989000 
500.500000	148.426000 
501.000000	160.000000 
501.500000	166.862000 
502.000000	188.152000 
502.500000	206.409000 
503.000000	214.254000 
503.500000	229.599000 
504.000000	241.780000 
504.500000	263.270000 
505.000000	279.522000 
505.500000	296.860000 
506.000000	317.556000 
506.500000	327.817000 
507.000000	350.414000 
507.500000	355.878000 
508.000000	377.054000 
508.500000	399.918000 
509.000000	422.898000 
509.500000	433.777000 
510.000000	443.690000 
510.500000	459.866000 
511.000000	479.530000 
511.500000	494.162000 
512.000000	515.172000 
512.500000	527.149000 
513.000000	536.793000 
513.500000	547.646000 
514.000000	555.481000 
514.500000	554.040000 
515.000000	570.152000 
515.500000	558.597000 
516.000000	580.910000 
516.500000	585.014000 
517.000000	588.151000 
517.500000	585.144000 
518.000000	582.896000 
518.500000	581.778000 
519.000000	580.252000 
519.500000	582.674000 
520.000000	570.409000 
520.500000	576.675000 
521.000000	571.125000 
521.500000	578.293000 
522.000000	560.870000 
522.500000	544.756000 
523.000000	555.427000 
523.500000	535.508000 
524.000000	536.872000 
524.500000	525.614000 
525.000000	513.343000 
525.500000	507.932000 
526.000000	510.173000 
526.500000	499.333000 
527.000000	483.627000 
527.500000	490.826000 
528.000000	468.873000 
528.500000	468.688000 
529.000000	452.550000 
529.500000	441.377000 
530.000000	444.739000 
530.500000	436.964000 
531.000000	422.742000 
531.500000	418.902000 
532.000000	402.346000 
532.500000	398.421000 
533.000000	393.795000 
533.500000	387.320000 
534.000000	382.953000 
534.500000	369.385000 
535.000000	355.542000 
535.500000	366.436000 
536.000000	346.538000 
536.500000	343.031000 
537.000000	345.414000 
537.500000	339.203000 
538.000000	334.535000 
538.500000	327.199000 
539.000000	314.770000 
539.500000	308.023000 
540.000000	307.662000 
540.500000	305.352000 
541.000000	288.928000 
541.500000	292.217000 
542.000000	282.675000 
542.500000	272.959000 
543.000000	269.307000 
543.500000	269.077000 
544.000000	266.703000 
544.500000	263.002000 
545.000000	263.875000 
545.500000	261.632000 
546.000000	251.964000 
546.500000	243.656000 
547.000000	246.003000 
547.500000	241.610000 
548.000000	239.631000 
548.500000	227.382000 
549.000000	224.989000 
549.500000	227.000000 
550.000000	224.502000 
550.500000	215.592000 
551.000000	215.548000 
551.500000	212.691000 
552.000000	208.074000 
552.500000	206.603000 
553.000000	199.255000 
553.500000	195.500000 
554.000000	199.075000 
554.500000	193.134000 
555.000000	188.677000 
555.500000	177.880000 
556.000000	180.779000 
556.500000	176.408000 
557.000000	170.967000 
557.500000	173.932000 
558.000000	171.292000 
558.500000	165.059000 
559.000000	161.126000 
559.500000	162.120000 
560.000000	158.002000 
560.500000	149.468000 
561.000000	151.163000 
561.500000	142.547000 
562.000000	142.135000 
562.500000	140.864000 
563.000000	137.591000 
563.500000	137.296000 
564.000000	129.516000 
564.500000	128.381000 
565.000000	127.586000 
565.500000	121.111000 
566.000000	118.084000 
566.500000	123.316000 
567.000000	118.211000 
567.500000	113.067000 
568.000000	107.933000 
568.500000	109.169000 
569.000000	105.066000 
569.500000	102.659000 
570.000000	101.437000 
570.500000	96.697999  
571.000000	93.657000  
571.500000	92.148000  
572.000000	94.446000  
572.500000	90.750000  
573.000000	85.745000  
573.500000	87.664000  
574.000000	81.584999  
574.500000	80.947000  
575.000000	79.175000  
575.500000	76.681000  
576.000000	76.803000  
576.500000	71.069999  
577.000000	70.629000  
577.500000	68.423000  
578.000000	65.911000  
578.500000	67.061000  
579.000000	64.745000  
579.500000	63.558000  
580.000000	60.849000  
580.500000	59.940000  
581.000000	59.315000  
581.500000	56.359000  
582.000000	58.747000  
582.500000	57.205000  
583.000000	53.081000  
583.500000	56.975000  
584.000000	51.126000  
584.500000	50.018000  
585.000000	49.500000  
585.500000	49.378000  
586.000000	46.964000  
586.500000	47.573000  
587.000000	47.588000  
587.500000	45.698000  
588.000000	46.087000  
588.500000	44.975000  
589.000000	45.876000  
589.500000	40.819000  
590.000000	40.458000  
590.500000	40.782000  
591.000000	39.965000  
591.500000	40.065000  
592.000000	37.407000  
592.500000	38.239000  
593.000000	34.937000  
593.500000	40.010000  
594.000000	36.016000  
594.500000	33.558000  
595.000000	31.515000  
595.500000	35.748000  
596.000000	31.828000  
596.500000	31.758000  
597.000000	30.846000  
597.500000	28.733000  
598.000000	31.801000  
598.500000	31.817000  
599.000000	31.751000  
599.500000	30.530000  
600.000000	29.485000  
600.500000	29.244000  
601.000000	29.815000  
601.500000	26.053000  
602.000000	25.677000  
602.500000	25.940000  
603.000000	25.905000  
603.500000	25.303000  
604.000000	25.690000  
604.500000	23.245000  
605.000000	23.264000  
605.500000	23.117000  
606.000000	22.105000  
606.500000	21.446000  
607.000000	22.716000  
607.500000	22.120000  
608.000000	21.322000  
608.500000	20.278000  
609.000000	20.094000  
609.500000	19.352000  
610.000000	17.995000  
610.500000	20.406000  
611.000000	18.733000  
611.500000	19.068000  
612.000000	18.713000  
612.500000	17.384000  
613.000000	18.783000  
613.500000	18.807000  
614.000000	17.229000  
614.500000	16.882000  
615.000000	15.358000  
615.500000	14.906000  
616.000000	16.092000  
616.500000	15.043000  
617.000000	16.458000  
617.500000	15.081000  
618.000000	15.245000  
618.500000	14.256000  
619.000000	14.214000  
619.500000	14.425000  
620.000000	13.079000  
620.500000	13.024000  
621.000000	13.220000  
621.500000	11.615000  
622.000000	11.157000  
622.500000	12.811000  
623.000000	11.750000  
623.500000	11.740000  
624.000000	11.227000  
624.500000	11.393000  
625.000000	10.552000  
625.500000	10.640000  
626.000000	10.331000  
626.500000	10.649000  
627.000000	10.440000  
627.500000	9.551000   
628.000000	8.420999   
628.500000	9.226000   
629.000000	10.063000  
629.500000	8.015000   
630.000000	8.756000   
630.500000	8.263000   
631.000000	8.368000   
631.500000	9.164999   
632.000000	8.446999   
632.500000	7.601000   
633.000000	7.643000   
633.500000	7.251000   
634.000000	7.569000   
634.500000	6.691000   
635.000000	6.989000   
635.500000	6.795000   
636.000000	5.693000   
636.500000	5.919000   
637.000000	6.337000   
637.500000	6.206000   
638.000000	6.105000   
638.500000	5.515000   
639.000000	4.986000   
639.500000	4.367000   
640.000000	5.191000   
640.500000	4.834000   
641.000000	4.810000   
641.500000	5.734000   
642.000000	5.086000   
642.500000	4.584000   
643.000000	5.015000   
643.500000	4.110000   
644.000000	4.636000   
644.500000	5.154000   
645.000000	4.374000   
645.500000	4.029000   
646.000000	4.904000   
646.500000	4.018000   
647.000000	4.098000   
647.500000	4.114000   
648.000000	4.488000   
648.500000	4.234000   
649.000000	3.289000   
649.500000	3.786000   
650.000000	3.454000   
650.500000	3.670000   
651.000000	3.393000   
651.500000	3.012000   
652.000000	3.094000   
652.500000	3.725000   
653.000000	3.808000   
653.500000	2.708000   
654.000000	3.462000   
654.500000	3.166000   
655.000000	3.342000   
655.500000	2.958000   
656.000000	3.891000   
656.500000	3.098000   
657.000000	3.533000   
657.500000	2.779000   
658.000000	2.556000   
658.500000	2.459000   
659.000000	2.711000   
659.500000	2.190000   
660.000000	2.818000   
660.500000	2.692000   
661.000000	2.734000   
661.500000	2.677000   
662.000000	2.034000   
662.500000	2.259000   
663.000000	2.099000   
663.500000	2.927000   
664.000000	2.545000   
664.500000	2.114000   
665.000000	2.208000   
665.500000	2.138000   
666.000000	1.997000   
666.500000	2.245000   
667.000000	1.509000   
667.500000	2.510000   
668.000000	1.991000   
668.500000	2.259000   
669.000000	1.945000   
669.500000	1.375000   
670.000000	2.256000   
670.500000	1.866000   
671.000000	1.247000   
671.500000	1.661000   
672.000000	1.840000   
672.500000	1.421000   
673.000000	1.933000   
673.500000	1.872000   
674.000000	1.430000   
674.500000	1.335000   
675.000000	1.762000   
675.500000	1.644000   
676.000000	1.510000   
676.500000	1.681000   
677.000000	1.903000   
677.500000	1.126000   
678.000000	1.583000   
678.500000	1.314000   
679.000000	1.693000   
679.500000	1.858000   
680.000000	1.630000   
680.500000	1.724000   
681.000000	1.648000   
681.500000	0.854000   
682.000000	1.313000   
682.500000	1.368000   
683.000000	1.409000   
683.500000	0.975000   
684.000000	1.357000   
684.500000	1.457000   
685.000000	1.585000   
685.500000	1.503000   
686.000000	1.035000   
686.500000	1.180000   
687.000000	0.973000   
687.500000	1.208000   
688.000000	1.208000   
688.500000	1.211000   
689.000000	1.050000   
689.500000	1.470000   
690.000000	0.804000   
690.500000	1.074000   
691.000000	1.314000   
691.500000	1.082000   
692.000000	1.158000   
692.500000	1.060000   
693.000000	1.600000   
693.500000	1.075000   
694.000000	1.171000   
694.500000	1.197000   
695.000000	1.283000   
695.500000	1.017000   
696.000000	1.139000   
696.500000	0.904000   
697.000000	0.932000   
697.500000	1.266000   
698.000000	0.937999   
698.500000	0.649000   
699.000000	0.750000   
699.500000	0.661000   
700.000000	1.113000   
700.500000	1.564000   

