PE FL                   SPECTRUM    ASCII       PEDS        1.60        
  -1
DMB037.SP
23/03/01
17:51:37.00
23/03/01
17:52:39.00


700.500000
1









LS50-B
415.00
2.50
2.50
SCAN
1
20
100
100
0
400
0
1
0
1
7
ON
700 415 
1 0 0
#HDR
-1
-1
#GR
NM
INT 
0.00002384185791015625
0.0
380.000000
0.500000
642
8
192.478000
-1.137000
#DATA
380.000000	0.315000   
380.500000	0.151000   
381.000000	0.224000   
381.500000	0.056000   
382.000000	-0.028000  
382.500000	0.095000   
383.000000	0.176000   
383.500000	0.248000   
384.000000	0.098000   
384.500000	0.123000   
385.000000	0.101000   
385.500000	0.000000   
386.000000	0.183000   
386.500000	0.096000   
387.000000	0.141000   
387.500000	0.068000   
388.000000	0.000000   
388.500000	-0.028000  
389.000000	0.029000   
389.500000	0.190000   
390.000000	0.105000   
390.500000	0.015000   
391.000000	0.169000   
391.500000	0.358000   
392.000000	0.080000   
392.500000	0.116000   
393.000000	0.236000   
393.500000	0.297000   
394.000000	0.070000   
394.500000	0.055000   
395.000000	-0.085000  
395.500000	0.000000   
396.000000	-0.041000  
396.500000	0.146000   
397.000000	0.091000   
397.500000	0.000000   
398.000000	0.105000   
398.500000	0.028000   
399.000000	0.102000   
399.500000	0.181000   
400.000000	0.188000   
400.500000	0.087999   
401.000000	-0.011000  
401.500000	-0.113000  
402.000000	0.369000   
402.500000	0.215000   
403.000000	0.260000   
403.500000	0.271000   
404.000000	0.054000   
404.500000	0.307000   
405.000000	0.203000   
405.500000	0.370000   
406.000000	0.365000   
406.500000	0.359000   
407.000000	0.334000   
407.500000	0.926000   
408.000000	1.217000   
408.500000	2.209000   
409.000000	4.278000   
409.500000	11.659000  
410.000000	19.658000  
410.500000	35.172000  
411.000000	58.311000  
411.500000	86.562000  
412.000000	122.200000 
412.500000	154.748000 
413.000000	180.985000 
413.500000	191.687000 
414.000000	192.478000 
414.500000	174.066000 
415.000000	145.535000 
415.500000	116.925000 
416.000000	81.819999  
416.500000	53.061000  
417.000000	32.905000  
417.500000	18.406000  
418.000000	8.988000   
418.500000	5.673000   
419.000000	2.526000   
419.500000	1.119000   
420.000000	0.969000   
420.500000	0.598000   
421.000000	0.268000   
421.500000	0.325000   
422.000000	0.253000   
422.500000	0.338000   
423.000000	0.176000   
423.500000	0.316000   
424.000000	0.444000   
424.500000	0.281000   
425.000000	0.056000   
425.500000	0.381000   
426.000000	-0.016000  
426.500000	0.172000   
427.000000	0.342000   
427.500000	-0.045000  
428.000000	0.347000   
428.500000	0.040000   
429.000000	0.335000   
429.500000	0.613000   
430.000000	-0.063000  
430.500000	-0.037000  
431.000000	0.228000   
431.500000	-0.157000  
432.000000	0.276000   
432.500000	0.111000   
433.000000	-0.202000  
433.500000	-0.248000  
434.000000	0.201000   
434.500000	0.239000   
435.000000	0.484000   
435.500000	0.045000   
436.000000	0.057000   
436.500000	0.461000   
437.000000	0.397000   
437.500000	-0.269000  
438.000000	0.047000   
438.500000	0.322000   
439.000000	-0.036000  
439.500000	0.208000   
440.000000	0.288000   
440.500000	0.255000   
441.000000	-0.042000  
441.500000	0.000000   
442.000000	0.805000   
442.500000	0.445000   
443.000000	0.407000   
443.500000	-0.365000  
444.000000	0.686000   
444.500000	0.459000   
445.000000	0.192000   
445.500000	0.506000   
446.000000	0.163000   
446.500000	0.482000   
447.000000	0.136000   
447.500000	0.748000   
448.000000	0.554000   
448.500000	0.331000   
449.000000	-1.099000  
449.500000	0.268000   
450.000000	0.021000   
450.500000	0.608000   
451.000000	0.635000   
451.500000	-1.137000  
452.000000	-0.569000  
452.500000	-0.129000  
453.000000	-0.183000  
453.500000	-0.383000  
454.000000	-0.252000  
454.500000	-0.725000  
455.000000	1.001000   
455.500000	0.402000   
456.000000	-0.019000  
456.500000	0.804000   
457.000000	-0.136000  
457.500000	-0.354000  
458.000000	0.747000   
458.500000	0.380000   
459.000000	0.063000   
459.500000	0.310000   
460.000000	-0.042000  
460.500000	0.188000   
461.000000	0.302000   
461.500000	-0.044000  
462.000000	0.362000   
462.500000	0.266000   
463.000000	0.752000   
463.500000	-0.011000  
464.000000	0.060000   
464.500000	0.065000   
465.000000	0.962000   
465.500000	-0.686000  
466.000000	0.341000   
466.500000	0.398000   
467.000000	-0.323000  
467.500000	0.482000   
468.000000	0.217000   
468.500000	0.612000   
469.000000	0.353000   
469.500000	0.936000   
470.000000	0.874000   
470.500000	0.204000   
471.000000	0.170000   
471.500000	0.066000   
472.000000	1.072000   
472.500000	0.719000   
473.000000	1.101000   
473.500000	1.226000   
474.000000	0.948000   
474.500000	0.042000   
475.000000	0.047000   
475.500000	0.519000   
476.000000	0.735000   
476.500000	0.591000   
477.000000	0.583000   
477.500000	-0.415000  
478.000000	1.159000   
478.500000	0.288000   
479.000000	0.029000   
479.500000	0.519000   
480.000000	0.562000   
480.500000	0.958000   
481.000000	1.389000   
481.500000	-0.113000  
482.000000	0.677000   
482.500000	0.727000   
483.000000	0.967000   
483.500000	0.838000   
484.000000	0.780000   
484.500000	1.616000   
485.000000	1.225000   
485.500000	1.285000   
486.000000	1.131000   
486.500000	1.293000   
487.000000	1.910000   
487.500000	1.002000   
488.000000	2.088000   
488.500000	2.005000   
489.000000	2.556000   
489.500000	1.145000   
490.000000	2.438000   
490.500000	2.603000   
491.000000	2.806000   
491.500000	3.778000   
492.000000	3.801000   
492.500000	5.613000   
493.000000	5.919000   
493.500000	4.761000   
494.000000	6.475000   
494.500000	6.323000   
495.000000	5.812000   
495.500000	6.654000   
496.000000	7.208000   
496.500000	7.197000   
497.000000	8.029999   
497.500000	10.271000  
498.000000	12.542000  
498.500000	13.292000  
499.000000	11.916000  
499.500000	14.902000  
500.000000	15.063000  
500.500000	16.210000  
501.000000	18.136000  
501.500000	17.389000  
502.000000	20.625000  
502.500000	23.558000  
503.000000	23.863000  
503.500000	24.997000  
504.000000	27.051000  
504.500000	28.777000  
505.000000	31.140000  
505.500000	34.571000  
506.000000	35.018000  
506.500000	37.714000  
507.000000	39.597000  
507.500000	39.074000  
508.000000	45.398000  
508.500000	43.777000  
509.000000	47.331000  
509.500000	51.703000  
510.000000	49.723000  
510.500000	55.145000  
511.000000	54.567000  
511.500000	57.363000  
512.000000	61.064000  
512.500000	63.053000  
513.000000	64.545000  
513.500000	66.608999  
514.000000	66.544000  
514.500000	68.090999  
515.000000	75.175000  
515.500000	71.607000  
516.000000	74.757000  
516.500000	73.360000  
517.000000	72.105999  
517.500000	69.958000  
518.000000	73.997000  
518.500000	75.374000  
519.000000	78.431000  
519.500000	76.191000  
520.000000	74.560000  
520.500000	75.038000  
521.000000	75.279000  
521.500000	76.828000  
522.000000	72.763000  
522.500000	74.620000  
523.000000	74.381000  
523.500000	70.197999  
524.000000	74.060000  
524.500000	75.056000  
525.000000	71.619000  
525.500000	71.236999  
526.000000	68.352999  
526.500000	72.029000  
527.000000	67.810000  
527.500000	67.061000  
528.000000	64.739999  
528.500000	64.108999  
529.000000	61.014000  
529.500000	63.836000  
530.000000	63.267000  
530.500000	62.107000  
531.000000	59.784000  
531.500000	61.287000  
532.000000	57.149000  
532.500000	54.094000  
533.000000	54.707000  
533.500000	58.468000  
534.000000	54.518000  
534.500000	53.537000  
535.000000	51.639000  
535.500000	51.617000  
536.000000	47.488000  
536.500000	49.209000  
537.000000	47.184000  
537.500000	47.399000  
538.000000	48.553000  
538.500000	46.864000  
539.000000	45.369000  
539.500000	45.550000  
540.000000	45.989000  
540.500000	44.587000  
541.000000	44.310000  
541.500000	45.731000  
542.000000	42.883000  
542.500000	41.873000  
543.000000	39.894000  
543.500000	38.213000  
544.000000	40.191000  
544.500000	43.187000  
545.000000	41.915000  
545.500000	38.714000  
546.000000	39.206000  
546.500000	36.733000  
547.000000	37.115000  
547.500000	37.520000  
548.000000	35.846000  
548.500000	36.176000  
549.000000	36.605000  
549.500000	34.981000  
550.000000	33.176000  
550.500000	32.258000  
551.000000	33.667000  
551.500000	31.371000  
552.000000	31.764000  
552.500000	31.904000  
553.000000	32.943000  
553.500000	29.544000  
554.000000	32.519000  
554.500000	31.032000  
555.000000	30.654000  
555.500000	29.514000  
556.000000	29.007000  
556.500000	27.713000  
557.000000	27.192000  
557.500000	25.004000  
558.000000	25.540000  
558.500000	26.124000  
559.000000	27.215000  
559.500000	25.443000  
560.000000	25.111000  
560.500000	24.003000  
561.000000	24.036000  
561.500000	24.418000  
562.000000	23.982000  
562.500000	24.251000  
563.000000	22.689000  
563.500000	20.442000  
564.000000	23.527000  
564.500000	20.998000  
565.000000	20.750000  
565.500000	21.146000  
566.000000	21.314000  
566.500000	20.324000  
567.000000	17.908000  
567.500000	17.770000  
568.000000	18.678000  
568.500000	18.017000  
569.000000	18.461000  
569.500000	16.323000  
570.000000	18.239000  
570.500000	18.054000  
571.000000	17.349000  
571.500000	15.812000  
572.000000	16.485000  
572.500000	16.289000  
573.000000	15.111000  
573.500000	15.222000  
574.000000	15.142000  
574.500000	15.417000  
575.000000	14.356000  
575.500000	13.462000  
576.000000	13.146000  
576.500000	13.232000  
577.000000	13.138000  
577.500000	11.095000  
578.000000	12.313000  
578.500000	11.370000  
579.000000	12.433000  
579.500000	11.505000  
580.000000	10.857000  
580.500000	11.486000  
581.000000	11.813000  
581.500000	10.928000  
582.000000	9.461000   
582.500000	10.707000  
583.000000	10.760000  
583.500000	11.849000  
584.000000	9.468999   
584.500000	9.647000   
585.000000	10.929000  
585.500000	10.875000  
586.000000	8.105000   
586.500000	9.135999   
587.000000	8.647000   
587.500000	8.765000   
588.000000	8.173999   
588.500000	8.218999   
589.000000	7.395000   
589.500000	7.056000   
590.000000	9.520000   
590.500000	8.297000   
591.000000	7.812000   
591.500000	6.369000   
592.000000	7.553000   
592.500000	6.817000   
593.000000	7.863000   
593.500000	6.472000   
594.000000	7.857000   
594.500000	7.795000   
595.000000	6.046000   
595.500000	6.404000   
596.000000	5.206000   
596.500000	6.178000   
597.000000	6.211000   
597.500000	7.126000   
598.000000	6.796000   
598.500000	6.374000   
599.000000	6.359000   
599.500000	6.048000   
600.000000	5.971000   
600.500000	4.961000   
601.000000	4.893000   
601.500000	5.830000   
602.000000	5.607000   
602.500000	5.627000   
603.000000	4.873000   
603.500000	5.415000   
604.000000	3.620000   
604.500000	4.050000   
605.000000	4.124000   
605.500000	5.861000   
606.000000	4.602000   
606.500000	5.159000   
607.000000	4.501000   
607.500000	5.333000   
608.000000	4.820000   
608.500000	3.996000   
609.000000	4.517000   
609.500000	4.593000   
610.000000	4.091000   
610.500000	4.122000   
611.000000	4.492000   
611.500000	4.900000   
612.000000	3.729000   
612.500000	3.433000   
613.000000	3.277000   
613.500000	4.512000   
614.000000	4.153000   
614.500000	3.993000   
615.000000	4.231000   
615.500000	3.656000   
616.000000	3.796000   
616.500000	3.098000   
617.000000	3.309000   
617.500000	3.372000   
618.000000	3.946000   
618.500000	3.708000   
619.000000	2.115000   
619.500000	2.361000   
620.000000	3.042000   
620.500000	2.833000   
621.000000	2.572000   
621.500000	3.385000   
622.000000	2.345000   
622.500000	1.754000   
623.000000	1.956000   
623.500000	1.829000   
624.000000	2.597000   
624.500000	2.755000   
625.000000	3.706000   
625.500000	2.593000   
626.000000	2.300000   
626.500000	2.145000   
627.000000	1.826000   
627.500000	2.025000   
628.000000	2.485000   
628.500000	1.636000   
629.000000	2.543000   
629.500000	1.547000   
630.000000	2.004000   
630.500000	1.561000   
631.000000	1.574000   
631.500000	1.939000   
632.000000	1.890000   
632.500000	1.810000   
633.000000	1.642000   
633.500000	2.150000   
634.000000	1.436000   
634.500000	1.379000   
635.000000	1.690000   
635.500000	0.865000   
636.000000	1.202000   
636.500000	1.377000   
637.000000	1.481000   
637.500000	1.689000   
638.000000	1.386000   
638.500000	1.082000   
639.000000	0.961000   
639.500000	0.917000   
640.000000	1.276000   
640.500000	1.092000   
641.000000	1.229000   
641.500000	1.728000   
642.000000	0.832000   
642.500000	1.095000   
643.000000	0.553000   
643.500000	1.682000   
644.000000	1.426000   
644.500000	1.193000   
645.000000	0.726000   
645.500000	0.596000   
646.000000	0.514000   
646.500000	1.046000   
647.000000	0.989000   
647.500000	0.000000   
648.000000	0.331000   
648.500000	0.093000   
649.000000	0.716000   
649.500000	0.565999   
650.000000	0.767000   
650.500000	0.547000   
651.000000	0.880000   
651.500000	0.751000   
652.000000	1.057000   
652.500000	0.902000   
653.000000	0.918000   
653.500000	0.859000   
654.000000	0.762000   
654.500000	0.790000   
655.000000	0.789000   
655.500000	0.461000   
656.000000	0.592000   
656.500000	0.672000   
657.000000	0.394000   
657.500000	0.767000   
658.000000	0.310000   
658.500000	0.854000   
659.000000	0.676000   
659.500000	0.233000   
660.000000	0.669000   
660.500000	0.478000   
661.000000	0.725000   
661.500000	0.501000   
662.000000	0.493000   
662.500000	0.583000   
663.000000	1.158000   
663.500000	0.235000   
664.000000	0.636000   
664.500000	0.446000   
665.000000	0.416000   
665.500000	0.511000   
666.000000	0.383000   
666.500000	0.668000   
667.000000	0.639000   
667.500000	0.608000   
668.000000	0.521000   
668.500000	0.485000   
669.000000	0.421000   
669.500000	0.900000   
670.000000	0.238000   
670.500000	0.666000   
671.000000	0.218000   
671.500000	0.903000   
672.000000	0.562999   
672.500000	0.095000   
673.000000	0.216000   
673.500000	0.599000   
674.000000	0.206000   
674.500000	0.491000   
675.000000	0.360000   
675.500000	0.499000   
676.000000	0.425000   
676.500000	0.848000   
677.000000	0.351000   
677.500000	0.431000   
678.000000	0.122000   
678.500000	0.365000   
679.000000	0.463000   
679.500000	0.583000   
680.000000	0.670000   
680.500000	0.302000   
681.000000	0.547000   
681.500000	0.383000   
682.000000	0.422000   
682.500000	0.259000   
683.000000	0.577000   
683.500000	0.468000   
684.000000	0.436000   
684.500000	0.407000   
685.000000	0.477000   
685.500000	0.310000   
686.000000	0.157000   
686.500000	0.242000   
687.000000	0.293000   
687.500000	0.186000   
688.000000	0.155000   
688.500000	0.203000   
689.000000	0.279000   
689.500000	0.501000   
690.000000	0.335000   
690.500000	0.364000   
691.000000	-0.001000  
691.500000	0.099000   
692.000000	0.246000   
692.500000	0.583000   
693.000000	0.478000   
693.500000	0.045000   
694.000000	0.459000   
694.500000	0.442000   
695.000000	0.151000   
695.500000	0.192000   
696.000000	0.253000   
696.500000	0.108000   
697.000000	0.339000   
697.500000	0.502000   
698.000000	0.164000   
698.500000	0.274000   
699.000000	0.190000   
699.500000	0.310000   
700.000000	0.375000   
700.500000	0.440000   

