PE FL                   SPECTRUM    ASCII       PEDS        1.60        
  -1
DMB020.SP
23/03/01
17:02:52.00
23/03/01
17:03:54.00


700.500000
1









LS50-B
415.00
2.50
2.50
SCAN
1
20
100
100
0
400
0
1
0
1
7
ON
700 415 
1 0 0
#HDR
-1
-1
#GR
NM
INT 
0.00002384185791015625
0.0
380.000000
0.500000
642
8
507.119000
0.050000
#DATA
380.000000	0.057000   
380.500000	0.372000   
381.000000	0.374000   
381.500000	0.134000   
382.000000	0.477000   
382.500000	0.207000   
383.000000	0.243000   
383.500000	0.233000   
384.000000	0.339000   
384.500000	0.142000   
385.000000	0.050000   
385.500000	0.418000   
386.000000	0.197000   
386.500000	0.248000   
387.000000	0.070999   
387.500000	0.423000   
388.000000	0.248000   
388.500000	0.391000   
389.000000	0.334000   
389.500000	0.112000   
390.000000	0.164000   
390.500000	0.076000   
391.000000	0.307000   
391.500000	0.261000   
392.000000	0.316000   
392.500000	0.183000   
393.000000	0.351000   
393.500000	0.233000   
394.000000	0.182000   
394.500000	0.186000   
395.000000	0.264000   
395.500000	0.384000   
396.000000	0.129000   
396.500000	0.122000   
397.000000	0.179000   
397.500000	0.355000   
398.000000	0.127000   
398.500000	0.218000   
399.000000	0.327000   
399.500000	0.311000   
400.000000	0.258000   
400.500000	0.323000   
401.000000	0.372000   
401.500000	0.462000   
402.000000	0.277000   
402.500000	0.310000   
403.000000	0.463000   
403.500000	0.133000   
404.000000	0.280000   
404.500000	0.285000   
405.000000	0.354000   
405.500000	0.494000   
406.000000	0.224000   
406.500000	0.400000   
407.000000	0.208000   
407.500000	0.675000   
408.000000	0.724000   
408.500000	1.180000   
409.000000	1.610000   
409.500000	3.452000   
410.000000	6.025000   
410.500000	11.357000  
411.000000	20.197000  
411.500000	31.101000  
412.000000	47.471000  
412.500000	60.566000  
413.000000	75.662000  
413.500000	90.444000  
414.000000	90.186000  
414.500000	83.950000  
415.000000	72.543000  
415.500000	58.847000  
416.000000	39.706000  
416.500000	27.516000  
417.000000	16.030000  
417.500000	9.141999   
418.000000	5.380000   
418.500000	2.842000   
419.000000	1.502000   
419.500000	1.077000   
420.000000	0.451000   
420.500000	0.637000   
421.000000	0.508000   
421.500000	0.584000   
422.000000	0.728000   
422.500000	0.694000   
423.000000	0.428000   
423.500000	0.375000   
424.000000	0.366000   
424.500000	0.490000   
425.000000	0.596000   
425.500000	0.443000   
426.000000	0.527000   
426.500000	0.695000   
427.000000	0.698000   
427.500000	0.851000   
428.000000	0.157000   
428.500000	0.399000   
429.000000	0.452000   
429.500000	0.373000   
430.000000	0.758000   
430.500000	0.692999   
431.000000	0.712000   
431.500000	0.821000   
432.000000	0.522000   
432.500000	0.364000   
433.000000	0.513000   
433.500000	0.909000   
434.000000	0.828000   
434.500000	0.646000   
435.000000	0.780000   
435.500000	0.924000   
436.000000	0.789000   
436.500000	0.746000   
437.000000	1.098000   
437.500000	0.937999   
438.000000	1.191000   
438.500000	0.953000   
439.000000	0.832000   
439.500000	0.798000   
440.000000	0.694000   
440.500000	1.207000   
441.000000	0.981000   
441.500000	1.101000   
442.000000	0.752000   
442.500000	0.815999   
443.000000	0.952000   
443.500000	0.876000   
444.000000	1.533000   
444.500000	0.956000   
445.000000	1.607000   
445.500000	1.090000   
446.000000	1.776000   
446.500000	1.578000   
447.000000	1.541000   
447.500000	1.392000   
448.000000	1.920000   
448.500000	1.666000   
449.000000	1.367000   
449.500000	2.298000   
450.000000	1.810000   
450.500000	1.214000   
451.000000	1.368000   
451.500000	1.824000   
452.000000	1.376000   
452.500000	1.457000   
453.000000	1.758000   
453.500000	1.697000   
454.000000	1.805000   
454.500000	1.785000   
455.000000	1.619000   
455.500000	1.606000   
456.000000	2.181000   
456.500000	2.448000   
457.000000	2.501000   
457.500000	1.955000   
458.000000	1.998000   
458.500000	2.061000   
459.000000	1.109000   
459.500000	1.805000   
460.000000	1.790000   
460.500000	2.177000   
461.000000	1.888000   
461.500000	1.968000   
462.000000	2.527000   
462.500000	2.577000   
463.000000	2.025000   
463.500000	1.893000   
464.000000	1.791000   
464.500000	2.325000   
465.000000	2.570000   
465.500000	2.364000   
466.000000	2.611000   
466.500000	2.796000   
467.000000	2.877000   
467.500000	2.485000   
468.000000	2.201000   
468.500000	2.537000   
469.000000	2.498000   
469.500000	2.087000   
470.000000	2.723000   
470.500000	2.570000   
471.000000	2.556000   
471.500000	2.985000   
472.000000	2.542000   
472.500000	2.842000   
473.000000	3.213000   
473.500000	2.563000   
474.000000	2.726000   
474.500000	2.500000   
475.000000	2.833000   
475.500000	2.910000   
476.000000	3.370000   
476.500000	3.788000   
477.000000	3.261000   
477.500000	4.171000   
478.000000	2.949000   
478.500000	3.631000   
479.000000	2.920000   
479.500000	3.586000   
480.000000	4.048000   
480.500000	4.641000   
481.000000	4.618000   
481.500000	5.213000   
482.000000	6.035000   
482.500000	5.179000   
483.000000	5.449000   
483.500000	6.156000   
484.000000	6.645000   
484.500000	6.507000   
485.000000	7.245000   
485.500000	9.129000   
486.000000	9.257000   
486.500000	10.591000  
487.000000	10.269000  
487.500000	11.352000  
488.000000	12.327000  
488.500000	13.396000  
489.000000	15.154000  
489.500000	15.592000  
490.000000	16.605000  
490.500000	17.813000  
491.000000	19.460000  
491.500000	21.685000  
492.000000	23.447000  
492.500000	26.419000  
493.000000	28.750000  
493.500000	31.576000  
494.000000	34.753000  
494.500000	36.410000  
495.000000	37.898000  
495.500000	43.623000  
496.000000	45.610000  
496.500000	52.774000  
497.000000	57.046000  
497.500000	64.501000  
498.000000	70.023000  
498.500000	75.090000  
499.000000	84.973000  
499.500000	84.281000  
500.000000	97.013000  
500.500000	105.973000 
501.000000	116.774000 
501.500000	122.717000 
502.000000	139.790000 
502.500000	149.379000 
503.000000	154.585000 
503.500000	166.586000 
504.000000	179.714000 
504.500000	193.126000 
505.000000	198.499000 
505.500000	222.520000 
506.000000	232.706000 
506.500000	247.863000 
507.000000	257.456000 
507.500000	281.802000 
508.000000	292.427000 
508.500000	312.173000 
509.000000	319.517000 
509.500000	334.488000 
510.000000	348.055000 
510.500000	373.468000 
511.000000	383.964000 
511.500000	388.117000 
512.000000	416.912000 
512.500000	415.076000 
513.000000	431.294000 
513.500000	445.592000 
514.000000	447.487000 
514.500000	461.461000 
515.000000	467.246000 
515.500000	469.858000 
516.000000	478.339000 
516.500000	483.008000 
517.000000	497.394000 
517.500000	494.824000 
518.000000	497.310000 
518.500000	502.805000 
519.000000	498.923000 
519.500000	507.119000 
520.000000	502.731000 
520.500000	497.396000 
521.000000	498.423000 
521.500000	505.737000 
522.000000	491.626000 
522.500000	482.916000 
523.000000	481.337000 
523.500000	457.258000 
524.000000	475.504000 
524.500000	472.822000 
525.000000	468.625000 
525.500000	449.221000 
526.000000	445.279000 
526.500000	436.464000 
527.000000	432.645000 
527.500000	437.944000 
528.000000	430.790000 
528.500000	422.236000 
529.000000	422.538000 
529.500000	408.563000 
530.000000	391.083000 
530.500000	385.405000 
531.000000	376.274000 
531.500000	375.999000 
532.000000	365.774000 
532.500000	361.423000 
533.000000	351.454000 
533.500000	344.084000 
534.000000	347.874000 
534.500000	338.827000 
535.000000	322.800000 
535.500000	326.616000 
536.000000	325.716000 
536.500000	318.973000 
537.000000	314.561000 
537.500000	306.392000 
538.000000	298.973000 
538.500000	298.375000 
539.000000	297.539000 
539.500000	292.443000 
540.000000	276.157000 
540.500000	269.502000 
541.000000	275.284000 
541.500000	268.872000 
542.000000	264.921000 
542.500000	261.129000 
543.000000	250.343000 
543.500000	255.950000 
544.000000	248.066000 
544.500000	246.826000 
545.000000	238.719000 
545.500000	245.701000 
546.000000	238.213000 
546.500000	236.841000 
547.000000	231.948000 
547.500000	228.343000 
548.000000	213.265000 
548.500000	217.711000 
549.000000	213.287000 
549.500000	209.168000 
550.000000	208.650000 
550.500000	201.032000 
551.000000	197.349000 
551.500000	200.015000 
552.000000	189.073000 
552.500000	189.117000 
553.000000	197.249000 
553.500000	181.906000 
554.000000	183.331000 
554.500000	179.339000 
555.000000	181.782000 
555.500000	171.838000 
556.000000	174.830000 
556.500000	167.481000 
557.000000	169.423000 
557.500000	160.618000 
558.000000	160.203000 
558.500000	158.591000 
559.000000	156.747000 
559.500000	147.480000 
560.000000	146.375000 
560.500000	143.851000 
561.000000	143.713000 
561.500000	138.323000 
562.000000	146.102000 
562.500000	135.163000 
563.000000	128.588000 
563.500000	130.920000 
564.000000	127.723000 
564.500000	129.518000 
565.000000	124.137000 
565.500000	118.872000 
566.000000	114.573000 
566.500000	111.683000 
567.000000	112.479000 
567.500000	106.781000 
568.000000	101.577000 
568.500000	101.182000 
569.000000	100.365000 
569.500000	103.361000 
570.000000	97.227999  
570.500000	93.727000  
571.000000	92.480999  
571.500000	88.521000  
572.000000	87.620000  
572.500000	87.188999  
573.000000	82.208000  
573.500000	80.791000  
574.000000	83.002000  
574.500000	80.977000  
575.000000	80.127000  
575.500000	79.789000  
576.000000	73.502000  
576.500000	72.173000  
577.000000	68.515000  
577.500000	66.477000  
578.000000	65.903000  
578.500000	64.809000  
579.000000	62.879000  
579.500000	64.748000  
580.000000	63.166000  
580.500000	59.962000  
581.000000	55.948000  
581.500000	56.987000  
582.000000	57.602000  
582.500000	56.522000  
583.000000	52.344000  
583.500000	55.645000  
584.000000	53.827000  
584.500000	51.341000  
585.000000	52.296000  
585.500000	48.901000  
586.000000	48.496000  
586.500000	47.922000  
587.000000	46.188000  
587.500000	44.581000  
588.000000	44.296000  
588.500000	42.128000  
589.000000	40.270000  
589.500000	40.102000  
590.000000	39.423000  
590.500000	39.257000  
591.000000	38.457000  
591.500000	35.906000  
592.000000	39.080000  
592.500000	37.248000  
593.000000	37.266000  
593.500000	35.125000  
594.000000	35.471000  
594.500000	34.466000  
595.000000	34.352000  
595.500000	32.550000  
596.000000	31.400000  
596.500000	30.130000  
597.000000	30.630000  
597.500000	32.896000  
598.000000	30.027000  
598.500000	29.939000  
599.000000	27.007000  
599.500000	29.090000  
600.000000	28.487000  
600.500000	26.801000  
601.000000	28.828000  
601.500000	28.328000  
602.000000	26.658000  
602.500000	25.265000  
603.000000	25.392000  
603.500000	25.900000  
604.000000	24.241000  
604.500000	23.979000  
605.000000	24.627000  
605.500000	25.009000  
606.000000	22.145000  
606.500000	22.203000  
607.000000	21.862000  
607.500000	22.680000  
608.000000	21.584000  
608.500000	21.546000  
609.000000	20.990000  
609.500000	19.695000  
610.000000	19.581000  
610.500000	19.775000  
611.000000	19.319000  
611.500000	20.394000  
612.000000	18.729000  
612.500000	18.250000  
613.000000	17.689000  
613.500000	17.137000  
614.000000	16.813000  
614.500000	15.885000  
615.000000	16.512000  
615.500000	15.614000  
616.000000	15.838000  
616.500000	14.133000  
617.000000	14.300000  
617.500000	14.342000  
618.000000	16.162000  
618.500000	14.958000  
619.000000	13.336000  
619.500000	13.183000  
620.000000	12.454000  
620.500000	12.590000  
621.000000	13.111000  
621.500000	13.987000  
622.000000	12.484000  
622.500000	12.973000  
623.000000	11.773000  
623.500000	10.588000  
624.000000	13.044000  
624.500000	11.111000  
625.000000	10.334000  
625.500000	10.307000  
626.000000	10.823000  
626.500000	9.738000   
627.000000	9.688000   
627.500000	9.766000   
628.000000	9.411000   
628.500000	10.649000  
629.000000	9.965000   
629.500000	10.002000  
630.000000	8.355000   
630.500000	8.077999   
631.000000	7.665000   
631.500000	9.019000   
632.000000	8.621000   
632.500000	8.523000   
633.000000	8.160000   
633.500000	8.535000   
634.000000	7.574000   
634.500000	7.367000   
635.000000	5.781000   
635.500000	7.610000   
636.000000	6.774000   
636.500000	6.182000   
637.000000	5.642000   
637.500000	5.460000   
638.000000	5.394000   
638.500000	6.598000   
639.000000	6.142000   
639.500000	6.458000   
640.000000	5.198000   
640.500000	5.774000   
641.000000	6.021000   
641.500000	5.240000   
642.000000	5.388000   
642.500000	5.444000   
643.000000	4.930000   
643.500000	4.383000   
644.000000	3.872000   
644.500000	3.762000   
645.000000	3.940000   
645.500000	4.661000   
646.000000	4.919000   
646.500000	4.238000   
647.000000	3.630000   
647.500000	3.723000   
648.000000	4.323000   
648.500000	3.963000   
649.000000	3.605000   
649.500000	3.619000   
650.000000	3.734000   
650.500000	3.539000   
651.000000	3.475000   
651.500000	4.316000   
652.000000	3.468000   
652.500000	3.307000   
653.000000	3.357000   
653.500000	3.811000   
654.000000	3.214000   
654.500000	2.774000   
655.000000	2.565000   
655.500000	3.623000   
656.000000	2.490000   
656.500000	3.047000   
657.000000	2.612000   
657.500000	2.642000   
658.000000	3.353000   
658.500000	2.635000   
659.000000	2.664000   
659.500000	2.861000   
660.000000	1.978000   
660.500000	2.881000   
661.000000	3.012000   
661.500000	2.612000   
662.000000	2.304000   
662.500000	2.543000   
663.000000	2.246000   
663.500000	2.340000   
664.000000	2.466000   
664.500000	2.431000   
665.000000	2.263000   
665.500000	2.015000   
666.000000	2.395000   
666.500000	2.577000   
667.000000	3.122000   
667.500000	2.687000   
668.000000	1.998000   
668.500000	1.949000   
669.000000	2.056000   
669.500000	1.759000   
670.000000	2.334000   
670.500000	2.158000   
671.000000	1.613000   
671.500000	1.524000   
672.000000	1.527000   
672.500000	1.935000   
673.000000	2.290000   
673.500000	1.875000   
674.000000	1.588000   
674.500000	1.962000   
675.000000	1.870000   
675.500000	2.341000   
676.000000	2.382000   
676.500000	1.917000   
677.000000	2.267000   
677.500000	1.772000   
678.000000	1.331000   
678.500000	1.578000   
679.000000	1.711000   
679.500000	1.465000   
680.000000	1.563000   
680.500000	1.338000   
681.000000	1.176000   
681.500000	0.895000   
682.000000	1.687000   
682.500000	1.847000   
683.000000	1.367000   
683.500000	1.470000   
684.000000	1.355000   
684.500000	1.295000   
685.000000	1.277000   
685.500000	1.335000   
686.000000	1.470000   
686.500000	1.477000   
687.000000	1.227000   
687.500000	0.981000   
688.000000	1.260000   
688.500000	1.205000   
689.000000	1.107000   
689.500000	1.607000   
690.000000	0.951000   
690.500000	1.238000   
691.000000	0.808000   
691.500000	1.231000   
692.000000	0.916000   
692.500000	1.023000   
693.000000	1.127000   
693.500000	1.174000   
694.000000	1.169000   
694.500000	0.842000   
695.000000	1.088000   
695.500000	0.795000   
696.000000	0.716000   
696.500000	0.983000   
697.000000	0.924000   
697.500000	0.593000   
698.000000	0.938999   
698.500000	0.933000   
699.000000	0.787000   
699.500000	0.960000   
700.000000	0.601000   
700.500000	0.243000   

