PE FL                   SPECTRUM    ASCII       PEDS        1.60        
  -1
DMB036.SP
23/03/01
17:49:11.00
23/03/01
17:50:13.00


700.500000
1









LS50-B
415.00
2.50
2.50
SCAN
1
20
100
100
0
400
0
1
0
1
7
ON
700 415 
1 0 0
#HDR
-1
-1
#GR
NM
INT 
0.00002384185791015625
0.0
380.000000
0.500000
642
8
185.085000
-0.583000
#DATA
380.000000	0.001000   
380.500000	0.369000   
381.000000	0.133000   
381.500000	0.193000   
382.000000	0.081000   
382.500000	0.055000   
383.000000	0.014000   
383.500000	0.381000   
384.000000	-0.023000  
384.500000	0.055000   
385.000000	0.100000   
385.500000	0.135000   
386.000000	0.029000   
386.500000	0.153000   
387.000000	0.039000   
387.500000	0.056000   
388.000000	-0.019000  
388.500000	0.022000   
389.000000	0.082000   
389.500000	0.056000   
390.000000	0.060000   
390.500000	0.174000   
391.000000	-0.014000  
391.500000	0.294000   
392.000000	0.155000   
392.500000	0.084000   
393.000000	0.077000   
393.500000	0.102000   
394.000000	-0.027000  
394.500000	0.028000   
395.000000	0.051000   
395.500000	0.000000   
396.000000	0.053000   
396.500000	0.369000   
397.000000	0.263000   
397.500000	0.110000   
398.000000	0.202000   
398.500000	0.050000   
399.000000	0.201000   
399.500000	0.056000   
400.000000	0.027000   
400.500000	0.134000   
401.000000	0.181000   
401.500000	0.223000   
402.000000	0.246000   
402.500000	0.345000   
403.000000	0.243000   
403.500000	0.367000   
404.000000	0.212000   
404.500000	0.382000   
405.000000	0.300000   
405.500000	0.373000   
406.000000	0.495000   
406.500000	0.363000   
407.000000	0.572000   
407.500000	0.414000   
408.000000	1.376000   
408.500000	1.675000   
409.000000	4.408000   
409.500000	10.540000  
410.000000	19.455000  
410.500000	32.414000  
411.000000	53.726000  
411.500000	82.839000  
412.000000	113.606000 
412.500000	147.532000 
413.000000	180.239000 
413.500000	185.085000 
414.000000	184.508000 
414.500000	169.975000 
415.000000	144.920000 
415.500000	111.238000 
416.000000	79.056000  
416.500000	50.667000  
417.000000	30.015000  
417.500000	19.047000  
418.000000	9.903000   
418.500000	4.944000   
419.000000	3.048000   
419.500000	0.986000   
420.000000	0.714000   
420.500000	0.461000   
421.000000	0.058000   
421.500000	0.493000   
422.000000	0.059000   
422.500000	0.358000   
423.000000	0.492000   
423.500000	0.202000   
424.000000	0.259000   
424.500000	0.077000   
425.000000	0.262000   
425.500000	-0.022000  
426.000000	-0.022000  
426.500000	-0.323000  
427.000000	-0.098000  
427.500000	0.379000   
428.000000	0.062000   
428.500000	0.213000   
429.000000	0.078000   
429.500000	0.264000   
430.000000	0.280000   
430.500000	0.151000   
431.000000	0.157000   
431.500000	0.136000   
432.000000	-0.060000  
432.500000	0.389000   
433.000000	0.652000   
433.500000	0.160000   
434.000000	0.258000   
434.500000	0.401000   
435.000000	0.051000   
435.500000	0.501000   
436.000000	0.461000   
436.500000	0.302000   
437.000000	-0.032000  
437.500000	-0.337000  
438.000000	0.015000   
438.500000	0.118000   
439.000000	0.017000   
439.500000	0.328000   
440.000000	0.627000   
440.500000	0.239000   
441.000000	-0.073000  
441.500000	-0.335000  
442.000000	0.641000   
442.500000	0.415000   
443.000000	0.180000   
443.500000	-0.510000  
444.000000	-0.384000  
444.500000	0.092000   
445.000000	0.502000   
445.500000	0.798000   
446.000000	0.046000   
446.500000	0.090000   
447.000000	0.255000   
447.500000	-0.201000  
448.000000	-0.250000  
448.500000	0.543000   
449.000000	1.603000   
449.500000	0.855000   
450.000000	0.648000   
450.500000	0.495000   
451.000000	-0.140000  
451.500000	0.268000   
452.000000	0.689999   
452.500000	0.150000   
453.000000	0.657000   
453.500000	-0.583000  
454.000000	0.495000   
454.500000	0.681000   
455.000000	-0.019000  
455.500000	0.099000   
456.000000	-0.227000  
456.500000	0.052000   
457.000000	0.084000   
457.500000	0.324000   
458.000000	1.507000   
458.500000	0.194000   
459.000000	0.346000   
459.500000	0.087999   
460.000000	0.129000   
460.500000	1.465000   
461.000000	1.811000   
461.500000	1.311000   
462.000000	0.836000   
462.500000	1.455000   
463.000000	0.980000   
463.500000	1.124000   
464.000000	-0.481000  
464.500000	1.108000   
465.000000	0.479000   
465.500000	0.092000   
466.000000	-0.151000  
466.500000	0.669000   
467.000000	1.110000   
467.500000	-0.491000  
468.000000	0.027000   
468.500000	0.497000   
469.000000	0.808000   
469.500000	0.723000   
470.000000	0.672000   
470.500000	0.209000   
471.000000	0.652000   
471.500000	0.967000   
472.000000	0.350000   
472.500000	0.698000   
473.000000	0.550000   
473.500000	0.521000   
474.000000	0.110000   
474.500000	0.482000   
475.000000	0.279000   
475.500000	0.493000   
476.000000	0.130000   
476.500000	0.808000   
477.000000	0.376000   
477.500000	0.958000   
478.000000	0.206000   
478.500000	0.469000   
479.000000	0.687000   
479.500000	1.271000   
480.000000	0.483000   
480.500000	0.557000   
481.000000	1.472000   
481.500000	0.812999   
482.000000	0.948000   
482.500000	1.091000   
483.000000	1.736000   
483.500000	0.631000   
484.000000	0.820000   
484.500000	1.555000   
485.000000	1.190000   
485.500000	2.146000   
486.000000	0.969000   
486.500000	1.717000   
487.000000	2.207000   
487.500000	1.275000   
488.000000	1.617000   
488.500000	2.430000   
489.000000	2.484000   
489.500000	3.964000   
490.000000	2.947000   
490.500000	2.581000   
491.000000	3.285000   
491.500000	3.535000   
492.000000	3.958000   
492.500000	4.650000   
493.000000	5.073000   
493.500000	5.373000   
494.000000	5.673000   
494.500000	6.587000   
495.000000	7.252000   
495.500000	8.342000   
496.000000	9.904999   
496.500000	9.272000   
497.000000	9.601000   
497.500000	11.618000  
498.000000	12.433000  
498.500000	13.047000  
499.000000	14.850000  
499.500000	17.145000  
500.000000	18.059000  
500.500000	18.747000  
501.000000	19.881000  
501.500000	23.430000  
502.000000	22.549000  
502.500000	25.872000  
503.000000	27.253000  
503.500000	30.948000  
504.000000	30.645000  
504.500000	34.619000  
505.000000	35.017000  
505.500000	36.046000  
506.000000	39.174000  
506.500000	44.570000  
507.000000	46.857000  
507.500000	49.659000  
508.000000	45.934000  
508.500000	50.655000  
509.000000	53.780000  
509.500000	57.518000  
510.000000	59.906000  
510.500000	63.582000  
511.000000	64.587999  
511.500000	67.697999  
512.000000	69.209000  
512.500000	71.105000  
513.000000	75.792000  
513.500000	74.016000  
514.000000	74.551000  
514.500000	76.994000  
515.000000	79.703000  
515.500000	75.999000  
516.000000	79.382000  
516.500000	83.860000  
517.000000	80.736999  
517.500000	81.406000  
518.000000	84.578999  
518.500000	85.607000  
519.000000	86.120000  
519.500000	84.290000  
520.000000	87.271000  
520.500000	85.887000  
521.000000	83.302000  
521.500000	82.596999  
522.000000	80.671000  
522.500000	82.253000  
523.000000	83.479000  
523.500000	82.473000  
524.000000	80.274000  
524.500000	81.561000  
525.000000	81.904000  
525.500000	81.947000  
526.000000	82.075999  
526.500000	77.078999  
527.000000	79.143000  
527.500000	72.883000  
528.000000	75.733999  
528.500000	72.762000  
529.000000	72.789000  
529.500000	71.420000  
530.000000	68.533000  
530.500000	70.309000  
531.000000	67.569000  
531.500000	68.712999  
532.000000	65.843000  
532.500000	65.979000  
533.000000	63.026000  
533.500000	63.753000  
534.000000	60.654000  
534.500000	62.768000  
535.000000	60.292000  
535.500000	62.613000  
536.000000	59.802000  
536.500000	58.262000  
537.000000	54.989000  
537.500000	54.645000  
538.000000	53.823000  
538.500000	52.613000  
539.000000	53.088000  
539.500000	50.715000  
540.000000	53.101000  
540.500000	51.015000  
541.000000	50.578000  
541.500000	51.051000  
542.000000	46.567000  
542.500000	47.952000  
543.000000	47.454000  
543.500000	46.418000  
544.000000	46.275000  
544.500000	44.539000  
545.000000	47.203000  
545.500000	44.399000  
546.000000	41.710000  
546.500000	41.907000  
547.000000	43.244000  
547.500000	42.497000  
548.000000	42.080000  
548.500000	42.042000  
549.000000	39.347000  
549.500000	39.976000  
550.000000	38.028000  
550.500000	39.496000  
551.000000	37.745000  
551.500000	40.309000  
552.000000	39.189000  
552.500000	36.602000  
553.000000	34.663000  
553.500000	35.649000  
554.000000	33.686000  
554.500000	33.472000  
555.000000	33.000000  
555.500000	32.096000  
556.000000	34.528000  
556.500000	33.736000  
557.000000	32.203000  
557.500000	33.298000  
558.000000	31.921000  
558.500000	29.645000  
559.000000	29.400000  
559.500000	30.625000  
560.000000	29.268000  
560.500000	26.881000  
561.000000	27.067000  
561.500000	26.133000  
562.000000	26.972000  
562.500000	24.443000  
563.000000	25.526000  
563.500000	26.482000  
564.000000	23.840000  
564.500000	23.993000  
565.000000	22.110000  
565.500000	23.437000  
566.000000	23.224000  
566.500000	22.801000  
567.000000	23.109000  
567.500000	21.195000  
568.000000	20.210000  
568.500000	20.390000  
569.000000	21.325000  
569.500000	19.898000  
570.000000	19.412000  
570.500000	19.067000  
571.000000	19.048000  
571.500000	16.481000  
572.000000	17.336000  
572.500000	17.677000  
573.000000	18.026000  
573.500000	18.709000  
574.000000	16.122000  
574.500000	15.879000  
575.000000	15.664000  
575.500000	16.082000  
576.000000	14.504000  
576.500000	14.282000  
577.000000	15.159000  
577.500000	14.464000  
578.000000	13.746000  
578.500000	12.421000  
579.000000	14.669000  
579.500000	13.129000  
580.000000	13.987000  
580.500000	12.233000  
581.000000	12.069000  
581.500000	13.347000  
582.000000	13.306000  
582.500000	11.656000  
583.000000	11.919000  
583.500000	11.320000  
584.000000	11.203000  
584.500000	11.613000  
585.000000	10.740000  
585.500000	10.536000  
586.000000	11.448000  
586.500000	9.055999   
587.000000	8.026000   
587.500000	10.718000  
588.000000	8.616000   
588.500000	9.289999   
589.000000	8.278000   
589.500000	9.787000   
590.000000	8.474000   
590.500000	8.474000   
591.000000	8.715000   
591.500000	9.628000   
592.000000	8.108000   
592.500000	9.112000   
593.000000	8.183000   
593.500000	7.241000   
594.000000	8.032999   
594.500000	8.522000   
595.000000	7.443000   
595.500000	6.834000   
596.000000	7.669000   
596.500000	7.347000   
597.000000	7.741000   
597.500000	6.117000   
598.000000	6.712000   
598.500000	7.445000   
599.000000	6.363000   
599.500000	7.989000   
600.000000	7.209000   
600.500000	7.146000   
601.000000	6.071000   
601.500000	4.737000   
602.000000	5.670000   
602.500000	4.904000   
603.000000	5.677000   
603.500000	5.628000   
604.000000	5.818000   
604.500000	5.274000   
605.000000	5.502000   
605.500000	6.285000   
606.000000	5.123000   
606.500000	5.068000   
607.000000	5.013000   
607.500000	3.849000   
608.000000	4.184000   
608.500000	4.054000   
609.000000	3.284000   
609.500000	5.028000   
610.000000	4.342000   
610.500000	4.384000   
611.000000	4.537000   
611.500000	3.702000   
612.000000	3.815000   
612.500000	4.837000   
613.000000	4.387000   
613.500000	4.553000   
614.000000	4.450000   
614.500000	3.666000   
615.000000	3.858000   
615.500000	4.259000   
616.000000	4.433000   
616.500000	4.180000   
617.000000	3.613000   
617.500000	3.365000   
618.000000	3.341000   
618.500000	2.932000   
619.000000	2.690000   
619.500000	4.088000   
620.000000	3.204000   
620.500000	3.444000   
621.000000	3.015000   
621.500000	3.028000   
622.000000	3.866000   
622.500000	2.609000   
623.000000	2.916000   
623.500000	3.002000   
624.000000	2.856000   
624.500000	2.659000   
625.000000	2.183000   
625.500000	2.895000   
626.000000	2.249000   
626.500000	2.731000   
627.000000	2.434000   
627.500000	2.217000   
628.000000	2.400000   
628.500000	2.467000   
629.000000	2.512000   
629.500000	1.765000   
630.000000	2.095000   
630.500000	1.728000   
631.000000	2.261000   
631.500000	2.515000   
632.000000	1.713000   
632.500000	1.853000   
633.000000	1.605000   
633.500000	1.739000   
634.000000	2.044000   
634.500000	1.261000   
635.000000	1.214000   
635.500000	2.244000   
636.000000	2.393000   
636.500000	2.051000   
637.000000	1.318000   
637.500000	2.531000   
638.000000	1.373000   
638.500000	1.902000   
639.000000	1.530000   
639.500000	2.121000   
640.000000	1.673000   
640.500000	1.522000   
641.000000	1.320000   
641.500000	0.781000   
642.000000	1.399000   
642.500000	1.415000   
643.000000	0.999000   
643.500000	1.406000   
644.000000	1.702000   
644.500000	0.981000   
645.000000	0.902000   
645.500000	1.292000   
646.000000	1.341000   
646.500000	0.777000   
647.000000	0.528000   
647.500000	0.951000   
648.000000	0.638000   
648.500000	0.731000   
649.000000	1.010000   
649.500000	1.670000   
650.000000	1.352000   
650.500000	1.233000   
651.000000	0.902000   
651.500000	0.940999   
652.000000	1.003000   
652.500000	0.643000   
653.000000	0.800000   
653.500000	0.800000   
654.000000	0.807000   
654.500000	0.887000   
655.000000	1.365000   
655.500000	0.939999   
656.000000	0.632000   
656.500000	0.390000   
657.000000	0.962000   
657.500000	1.332000   
658.000000	0.757000   
658.500000	0.687999   
659.000000	0.443000   
659.500000	0.714000   
660.000000	0.508000   
660.500000	0.357000   
661.000000	0.691999   
661.500000	0.831000   
662.000000	0.794000   
662.500000	0.385000   
663.000000	0.609000   
663.500000	0.282000   
664.000000	0.781000   
664.500000	0.747000   
665.000000	0.536000   
665.500000	0.360000   
666.000000	0.560000   
666.500000	0.448000   
667.000000	0.537000   
667.500000	1.166000   
668.000000	0.900000   
668.500000	0.632000   
669.000000	0.002000   
669.500000	0.722000   
670.000000	0.703000   
670.500000	0.287000   
671.000000	0.904000   
671.500000	0.153000   
672.000000	0.485000   
672.500000	0.740000   
673.000000	0.660000   
673.500000	1.199000   
674.000000	0.726000   
674.500000	0.648000   
675.000000	0.456000   
675.500000	0.508000   
676.000000	0.184000   
676.500000	0.177000   
677.000000	0.474000   
677.500000	0.703000   
678.000000	0.489000   
678.500000	0.608000   
679.000000	0.528000   
679.500000	0.373000   
680.000000	0.513000   
680.500000	0.460000   
681.000000	0.582000   
681.500000	0.701000   
682.000000	0.588000   
682.500000	0.281000   
683.000000	0.163000   
683.500000	0.553000   
684.000000	0.448000   
684.500000	0.582000   
685.000000	0.266000   
685.500000	0.433000   
686.000000	0.243000   
686.500000	0.340000   
687.000000	0.381000   
687.500000	0.449000   
688.000000	0.313000   
688.500000	0.399000   
689.000000	0.348000   
689.500000	0.011000   
690.000000	0.027000   
690.500000	0.440000   
691.000000	0.455000   
691.500000	0.000000   
692.000000	0.178000   
692.500000	0.311000   
693.000000	0.264000   
693.500000	0.505000   
694.000000	0.175000   
694.500000	-0.017000  
695.000000	0.233000   
695.500000	-0.098000  
696.000000	0.515000   
696.500000	0.164000   
697.000000	0.257000   
697.500000	0.067000   
698.000000	0.451000   
698.500000	0.620000   
699.000000	0.432000   
699.500000	0.268000   
700.000000	0.181000   
700.500000	0.095000   

